DTS Sentinel unit serial number:	SN410029Multiplexer serial number:	ORYXHardware model number:	OX2-SRSoftware version number:	ORYX F/W v4,00 Oryx Data Collector v3.7.2.0data status	okinstallation	B6 Nyhavnadifferential loss correction	single-endedforward channel	channel 2reverse channel	N/Adate	2023/12/07time	14:20:08forward acquisition time	300,00reverse acquisition time	0,00gamma	499,1914k internal	0,3197k external	0,3197temperature offset calibration	1,0000default loss term (dB/km)	0,3820temperature slope calibration	1,0000multiplexer offset coefficient	1,0000multiplexer slope coefficient	1,0000fibre end	0,00T internal ref (°C)	13,54T ext. ref 1 (°C)	-1,73T ext. ref 2 (°C)	-1,72length (m)	temperature (°C)	Stokes	anti-Stokes-744,400	-96,892	0,163	0,031
-743,385	-121,614	-0,217	0,026
-742,371	800,000	0,036	0,088
-741,356	-114,208	-0,213	0,030
-740,342	328,783	0,079	0,110
-739,327	-146,031	-0,395	-0,025
-738,312	75,189	0,091	-0,070
-737,298	-85,517	-0,227	-0,051
-736,283	-152,253	0,093	0,005
-735,269	-127,050	-0,434	0,046
-734,254	800,000	0,036	-0,076
-733,239	-59,561	-0,539	-0,167
-732,225	-35,253	0,135	0,053
-731,210	-200,000	-0,005	0,129
-730,196	653,777	-0,070	0,131
-729,181	800,000	-0,026	-0,061
-728,167	-70,865	0,095	-0,026
-727,152	477,364	-0,040	-0,067
-726,137	-139,064	-0,109	0,008
-725,123	800,000	-0,027	-0,063
-724,108	-200,000	-0,036	-0,183
-723,094	71,148	-0,115	-0,087
-722,079	800,000	-0,091	-0,225
-721,064	27,245	-0,056	-0,034
-720,050	-55,034	0,049	-0,016
-719,035	37,792	0,062	-0,040
-718,021	8,955	-0,077	0,042
-717,006	258,624	0,044	-0,056
-715,991	54,693	-0,106	-0,074
-714,977	24,389	-0,047	0,028
-713,962	149,639	0,034	-0,034
-712,948	682,221	0,064	0,123
-711,933	337,187	-0,025	0,035
-710,918	144,012	0,035	0,034
-709,904	-142,264	-0,080	0,006
-708,889	23,037	-0,104	0,062
-707,875	-200,000	-0,032	-0,195
-706,860	-126,900	-0,056	-0,006
-705,845	-2,940	-0,088	-0,045
-704,831	-86,148	0,034	0,008
-703,816	135,953	-0,108	0,103
-702,802	-200,000	-0,010	-0,082
-701,787	-63,339	0,079	0,024
-700,772	0,588	0,046	-0,024
-699,758	201,398	-0,053	0,059
-698,743	-44,818	0,078	-0,028
-697,729	115,323	0,010	-0,009
-696,714	264,672	0,041	-0,052
-695,699	169,205	-0,100	-0,104
-694,685	800,000	-0,029	-0,069
-693,670	-31,791	-0,097	0,039
-692,656	-11,615	0,132	0,063
-691,641	114,637	0,096	0,085
-690,627	-107,457	-0,099	0,016
-689,612	197,217	-0,113	0,126
-688,597	-164,978	0,052	-0,002
-687,583	-200,000	0,013	-0,168
-686,568	800,000	-0,012	0,027
-685,554	-200,000	-0,001	0,022
-684,539	-11,776	0,055	-0,026
-683,524	-200,000	0,013	-0,051
-682,510	-97,732	0,024	-0,004
-681,495	32,304	0,024	0,015
-680,481	-91,208	0,115	-0,024
-679,466	710,256	-0,021	-0,041
-678,451	-200,000	-0,024	0,107
-677,437	460,708	0,109	-0,177
-676,422	367,138	0,022	-0,032
-675,408	-7,957	-0,091	-0,045
-674,393	-200,000	0,009	0,066
-673,378	-22,571	-0,027	0,012
-672,364	257,906	0,058	-0,072
-671,349	-164,740	-0,123	-0,004
-670,335	800,000	0,038	0,109
-669,320	-139,564	-0,054	-0,004
-668,305	-200,000	0,010	0,119
-667,291	43,103	-0,098	0,065
-666,276	-18,551	-0,074	0,033
-665,262	-98,729	-0,095	0,017
-664,247	-200,000	0,008	0,097
-663,232	14,992	-0,063	0,036
-662,218	206,414	-0,033	0,037
-661,203	-200,000	0,014	0,076
-660,189	-200,000	-0,036	0,132
-659,174	738,740	-0,012	-0,023
-658,159	-104,745	-0,043	-0,007
-657,145	-42,127	-0,174	-0,064
-656,130	723,994	-0,035	0,068
-655,116	294,939	0,044	0,058
-654,101	286,569	0,099	0,130
-653,086	-170,629	0,059	-0,001
-652,072	267,379	-0,047	0,060
-651,057	363,140	0,051	-0,074
-650,043	-2,388	-0,074	0,038
-649,028	-200,000	0,000	0,145
-648,014	45,083	0,038	-0,025
-646,999	800,000	0,028	0,082
-645,984	-200,000	0,034	0,124
-644,970	198,351	-0,024	-0,026
-643,955	800,000	-0,035	-0,091
-642,941	86,273	-0,117	-0,093
-641,926	-25,153	-0,025	-0,011
-640,911	-71,119	0,123	0,033
-639,897	-64,383	0,150	0,044
-638,882	-125,693	-0,092	-0,010
-637,868	207,245	0,077	-0,087
-636,853	-200,000	-0,003	-0,094
-635,838	495,082	-0,048	-0,080
-634,824	-200,000	0,015	0,068
-633,809	800,000	-0,030	0,088
-632,795	19,436	0,045	0,026
-631,780	502,238	0,085	0,144
-630,765	-143,308	0,102	-0,007
-629,751	381,651	0,025	-0,037
-628,736	-15,997	-0,085	0,039
-627,722	-121,495	0,056	0,007
-626,707	245,088	0,089	-0,108
-625,692	-116,260	0,073	0,010
-624,678	181,179	-0,074	0,079
-623,663	346,147	-0,050	0,072
-622,649	493,499	-0,095	-0,158
-621,634	800,000	-0,038	-0,114
-620,619	-60,916	-0,141	-0,043
-619,605	104,303	0,033	0,028
-618,590	-99,595	0,123	0,022
-617,576	-48,638	-0,092	0,032
-616,561	511,424	0,036	0,062
-615,546	358,648	-0,051	-0,073
-614,532	-74,309	-0,104	-0,027
-613,517	177,885	-0,065	-0,069
-612,503	-111,068	-0,160	0,024
-611,488	353,498	0,051	-0,074
-610,474	800,000	0,025	0,056
-609,459	420,541	-0,033	-0,051
-608,444	693,906	0,039	-0,075
-607,430	-70,155	-0,057	0,016
-606,415	431,154	-0,089	-0,140
-605,401	800,000	-0,046	-0,107
-604,386	643,904	0,014	0,025
-603,371	478,420	0,036	0,059
-602,357	-37,526	0,060	-0,023
-601,342	-149,409	0,117	-0,007
-600,328	-16,699	-0,093	0,042
-599,313	800,000	-0,049	-0,116
-598,298	800,000	-0,070	-0,165
-597,284	298,423	0,051	-0,068
-596,269	106,477	-0,111	0,095
-595,255	-6,724	0,074	-0,036
-594,240	-200,000	-0,002	0,107
-593,225	313,093	-0,047	-0,065
-592,211	-200,000	-0,006	-0,053
-591,196	-35,766	0,068	0,027
-590,182	154,715	0,077	0,076
-589,167	800,000	-0,015	-0,033
-588,152	113,168	-0,052	-0,045
-587,138	800,000	-0,039	-0,098
-586,123	634,949	0,043	-0,080
-585,109	545,135	-0,030	0,052
-584,094	234,780	-0,067	0,080
-583,079	204,391	0,126	0,141
-582,065	-61,960	0,105	-0,031
-581,050	800,000	-0,019	-0,053
-580,036	-115,499	0,133	0,018
-579,021	242,928	0,118	-0,144
-578,006	581,072	-0,043	-0,076
-576,992	-200,000	-0,007	-0,095
-575,977	139,279	0,057	-0,055
-574,963	-200,000	0,009	0,087
-573,948	-72,791	-0,069	-0,018
-572,934	-136,845	0,063	0,005
-571,919	-200,000	-0,043	-0,144
-570,904	-93,204	0,127	-0,025
-569,890	-79,551	-0,074	-0,018
-568,875	-49,436	-0,091	0,031
-567,861	800,000	-0,008	-0,018
-566,846	142,178	0,110	0,105
-565,831	-121,596	-0,077	0,009
-564,817	28,437	-0,138	0,084
-563,802	77,827	0,040	-0,031
-562,788	-53,729	-0,111	0,036
-561,773	-98,611	-0,052	0,010
-560,758	113,796	0,090	-0,079
-559,744	70,455	0,039	-0,029
-558,729	362,935	-0,065	0,095
-557,715	-200,000	0,007	-0,120
-556,700	541,229	-0,111	-0,192
-555,685	-200,000	-0,002	-0,118
-554,671	249,590	-0,057	-0,070
-553,656	0,066	-0,112	-0,058
-552,642	-200,000	-0,010	0,142
-551,627	-200,000	0,011	-0,087
-550,612	-200,000	0,005	0,026
-549,598	253,672	-0,011	-0,014
-548,583	800,000	0,027	-0,054
-547,569	104,811	0,037	-0,031
-546,554	-45,058	0,134	0,048
-545,539	415,350	-0,018	-0,027
-544,525	-200,000	-0,015	0,104
-543,510	11,633	0,031	0,017
-542,496	-168,081	0,006	0,000
-541,481	-200,000	-0,014	-0,087
-540,466	-171,078	0,051	-0,001
-539,452	82,923	0,134	0,105
-538,437	165,003	0,116	0,118
-537,423	-74,375	-0,027	-0,007
-536,408	-200,000	-0,013	-0,137
-535,393	343,982	-0,045	-0,064
-534,379	-10,654	-0,131	-0,062
-533,364	-200,000	-0,008	-0,174
-532,350	-186,490	-0,006	0,000
-531,335	211,656	-0,067	0,077
-530,321	800,000	0,045	0,123
-529,306	-200,000	0,007	0,086
-528,291	-32,413	-0,119	-0,048
-527,277	-200,000	-0,020	0,132
-526,262	-97,685	-0,157	-0,029
-525,248	-151,004	-0,130	-0,007
-524,233	-61,679	0,106	0,032
-523,218	56,352	0,091	0,064
-522,204	-117,858	-0,088	0,011
-521,189	-200,000	-0,011	-0,078
-520,175	-114,762	-0,092	0,012
-519,160	444,787	-0,033	0,052
-518,145	800,000	0,061	-0,152
-517,131	800,000	-0,076	0,155
-516,116	-70,706	0,055	0,015
-515,102	39,649	-0,074	0,048
-514,087	-200,000	0,002	-0,017
-513,072	-27,719	-0,033	0,014
-512,058	800,000	0,026	-0,062
-511,043	-131,828	0,099	-0,009
-510,029	-155,526	0,119	0,005
-509,014	179,952	0,134	0,142
-507,999	291,333	-0,019	-0,026
-506,985	-142,592	-0,077	0,005
-505,970	617,391	0,042	0,077
-504,956	78,320	0,078	-0,060
-503,941	-140,494	0,027	0,002
-502,926	-174,862	0,106	0,002
-501,912	-200,000	0,015	0,144
-500,897	800,000	-0,014	0,031
-499,883	800,000	0,019	0,041
-498,868	800,000	-0,073	0,162
-497,853	-12,252	0,053	-0,025
-496,839	-60,215	-0,039	0,012
-495,824	800,000	0,067	0,158
-494,810	-53,773	0,072	-0,024
-493,795	800,000	0,076	-0,204
-492,781	243,010	0,033	0,040
-491,766	29,008	0,103	-0,063
-490,751	-200,000	-0,001	0,107
-489,737	800,000	-0,039	-0,118
-488,722	7,629	0,098	0,053
-487,708	25,705	-0,134	0,080
-486,693	-200,000	-0,026	-0,097
-485,678	-111,482	-0,070	0,010
-484,664	184,778	0,021	0,022
-483,649	-78,357	0,009	-0,002
-482,635	-200,000	0,107	0,000
-481,620	-200,000	-0,018	0,081
-480,605	117,001	-0,010	-0,009
-479,591	800,000	-0,051	0,122
-478,576	272,850	0,095	0,121
-477,562	342,697	-0,013	0,019
-476,547	800,000	-0,015	-0,045
-475,532	-64,831	-0,153	0,044
-474,518	120,205	0,093	0,084
-473,503	-200,000	0,016	0,053
-472,489	773,031	-0,111	0,219
-471,474	-23,569	0,132	0,057
-470,459	-161,018	0,036	0,001
-469,445	-42,272	-0,059	0,022
-468,430	800,000	-0,052	-0,141
-467,416	67,430	0,052	-0,038
-466,401	102,458	0,019	0,016
-465,386	0,033	0,040	-0,020
-464,372	453,009	-0,055	-0,088
-463,357	-33,393	-0,052	0,021
-462,343	-7,432	-0,130	0,063
-461,328	800,000	0,027	-0,074
-460,313	-137,509	0,131	0,011
-459,299	-14,479	-0,061	0,028
-458,284	9,868	0,076	0,041
-457,270	-109,511	-0,061	0,009
-456,255	205,597	-0,083	-0,093
-455,241	-125,195	-0,013	0,001
-454,226	-200,000	0,012	-0,133
-453,211	73,826	0,051	-0,038
-452,197	800,000	0,059	0,153
-451,182	119,074	-0,029	-0,026
-450,168	257,360	0,030	0,037
-449,153	209,024	0,015	0,016
-448,138	65,225	-0,108	-0,078
-447,124	260,437	-0,043	-0,054
-446,109	-200,000	-0,037	0,138
-445,095	1,349	0,033	-0,017
-444,080	-200,000	-0,051	-0,171
-443,065	-178,603	-0,043	-0,001
-442,051	192,228	0,084	-0,091
-441,036	96,708	-0,067	-0,055
-440,022	-200,000	0,006	-0,147
-439,007	298,953	0,075	-0,100
-437,992	-200,000	0,014	-0,123
-436,978	-200,000	0,004	-0,071
-435,963	371,258	0,043	0,063
-434,949	161,354	0,051	0,051
-433,934	78,548	-0,079	0,061
-432,919	-200,000	-0,028	0,160
-431,905	-8,238	0,028	0,013
-430,890	163,576	-0,050	0,051
-429,876	-200,000	-0,011	0,164
-428,861	252,185	-0,037	0,045
-427,846	404,444	0,070	0,107
-426,832	46,777	-0,030	0,020
-425,817	137,332	-0,067	-0,063
-424,803	-19,625	-0,097	0,043
-423,788	-122,798	0,127	-0,015
-422,773	-30,036	0,083	0,034
-421,759	800,000	-0,026	-0,058
-420,744	-149,705	0,069	0,004
-419,730	228,264	-0,046	-0,054
-418,715	-200,000	-0,041	-0,145
-417,701	701,960	0,083	-0,159
-416,686	678,668	0,037	0,069
-415,671	-200,000	0,021	-0,106
-414,657	4,790	0,054	0,029
-413,642	-200,000	0,024	0,077
-412,628	-71,130	-0,023	0,006
-411,613	97,961	0,078	-0,065
-410,598	118,083	-0,097	-0,086
-409,584	91,579	0,063	0,051
-408,569	-111,508	0,109	-0,016
-407,555	37,222	0,103	0,065
-406,540	-200,000	-0,007	0,139
-405,525	30,111	0,073	0,045
-404,511	-56,938	-0,132	0,042
-403,496	-200,000	-0,012	0,100
-402,482	27,394	0,034	-0,021
-401,467	800,000	0,021	-0,066
-400,452	800,000	0,008	-0,021
-399,438	-200,000	0,044	-0,145
-398,423	199,787	-0,028	0,031
-397,409	-59,836	-0,067	-0,020
-396,394	800,000	0,037	-0,110
-395,379	303,030	-0,035	-0,046
-394,365	-200,000	-0,001	-0,067
-393,350	172,575	-0,073	0,075
-392,336	800,000	-0,042	-0,089
-391,321	800,000	-0,029	-0,058
-390,306	-47,691	-0,041	0,014
-389,292	93,408	0,082	-0,067
-388,277	-200,000	0,006	-0,128
-387,263	0,488	0,089	-0,046
-386,248	144,201	0,028	0,027
-385,233	374,883	0,076	-0,111
-384,219	800,000	0,045	0,133
-383,204	23,199	-0,018	-0,010
-382,190	800,000	0,025	-0,078
-381,175	-107,268	0,038	0,006
-380,160	295,350	0,037	0,049
-379,146	-200,000	-0,000	-0,023
-378,131	-68,658	-0,102	0,028
-377,117	51,451	0,052	-0,036
-376,102	-81,322	0,077	0,018
-375,088	353,842	-0,087	-0,124
-374,073	-200,000	0,013	-0,106
-373,058	64,978	0,081	0,058
-372,044	60,490	0,032	-0,023
-371,029	-200,000	-0,018	0,079
-370,015	-17,975	0,094	-0,042
-369,000	395,725	-0,045	-0,068
-367,985	-200,000	-0,012	0,144
-366,971	203,243	0,084	-0,094
-365,956	144,896	0,104	-0,100
-364,942	374,619	-0,027	0,040
-363,927	640,683	0,052	0,095
-362,912	-11,892	-0,133	0,062
-361,898	-160,286	0,129	0,005
-360,883	-12,562	-0,105	0,049
-359,869	316,832	-0,082	-0,111
-358,854	-160,672	0,137	0,005
-357,839	800,000	0,062	0,133
-356,825	-66,218	0,074	-0,021
-355,810	9,476	0,035	0,019
-354,796	21,014	-0,034	0,019
-353,781	173,211	-0,043	-0,044
-352,766	-200,000	0,001	0,044
-351,752	205,144	-0,015	-0,016
-350,737	800,000	-0,083	0,230
-349,723	-76,440	0,040	-0,010
-348,708	179,577	-0,111	0,117
-347,693	-47,003	0,106	-0,037
-346,679	800,000	0,029	-0,086
-345,664	245,952	-0,036	-0,044
-344,650	86,532	-0,023	-0,019
-343,635	-139,720	0,094	0,007
-342,620	-200,000	-0,008	-0,092
-341,606	432,020	-0,078	0,122
-340,591	-15,011	0,197	0,090
-339,577	185,831	-0,039	0,041
-338,562	-100,731	-0,082	-0,014
-337,548	50,064	0,116	0,079
-336,533	165,045	-0,071	0,072
-335,518	150,141	0,047	0,046
-334,504	-183,742	-0,095	-0,001
-333,489	-200,000	0,018	-0,070
-332,475	-106,401	-0,029	0,005
-331,460	-18,954	0,057	-0,025
-330,445	-109,113	0,071	0,011
-329,431	800,000	0,076	0,154
-328,416	-200,000	-0,011	-0,041
-327,402	800,000	0,051	0,138
-326,387	-200,000	0,008	0,126
-325,372	-162,236	-0,044	-0,002
-324,358	800,000	-0,027	0,068
-323,343	-58,730	0,072	-0,022
-322,329	351,106	0,054	0,077
-321,314	-83,164	0,104	0,024
-320,299	135,911	-0,108	0,101
-319,285	58,881	-0,107	-0,076
-318,270	-81,867	-0,161	-0,038
-317,256	-29,719	0,017	0,007
-316,241	-200,000	0,001	-0,026
-315,226	299,824	-0,066	0,088
-314,212	482,420	0,029	-0,047
-313,197	32,566	-0,092	0,057
-312,183	-200,000	-0,004	0,043
-311,168	112,209	0,065	-0,056
-310,153	-200,000	-0,001	0,035
-309,139	-141,145	-0,109	0,008
-308,124	742,467	0,033	0,064
-307,110	-200,000	0,038	0,149
-306,095	800,000	0,012	-0,036
-305,080	165,920	-0,108	0,110
-304,066	48,500	0,086	-0,058
-303,051	-192,370	-0,076	0,000
-302,037	800,000	-0,059	0,180
-301,022	-200,000	0,021	-0,076
-300,008	-200,000	-0,009	0,126
-298,993	54,459	0,076	0,052
-297,978	-125,281	-0,064	0,007
-296,964	-74,132	-0,100	0,026
-295,949	-41,269	0,011	-0,004
-294,935	287,104	-0,089	-0,116
-293,920	-197,732	-0,166	0,001
-292,905	-200,000	-0,001	0,106
-291,891	734,959	-0,018	0,035
-290,876	8,189	-0,058	0,031
-289,862	-200,000	0,007	0,061
-288,847	177,612	-0,054	-0,056
-287,832	-42,734	-0,127	-0,046
-286,818	56,685	0,053	0,037
-285,803	-119,941	-0,084	0,010
-284,789	-200,000	0,010	0,207
-283,774	164,174	0,046	0,046
-282,759	-200,000	0,026	-0,156
-281,745	249,882	-0,045	0,055
-280,730	800,000	0,013	-0,030
-279,716	13,271	0,073	-0,040
-278,701	-75,894	0,164	0,041
-277,686	201,888	0,036	0,040
-276,672	201,798	-0,086	-0,095
-275,657	-200,000	0,022	0,073
-274,643	-158,282	-0,117	-0,005
-273,628	253,419	0,028	0,034
-272,613	-200,000	0,007	-0,023
-271,599	295,072	0,089	-0,117
-270,584	-16,795	-0,046	0,021
-269,570	141,927	0,040	-0,038
-268,555	-200,000	-0,008	0,089
-267,540	497,247	-0,025	-0,041
-266,526	-200,000	0,021	-0,108
-265,511	-58,835	-0,148	0,046
-264,497	92,582	-0,085	-0,069
-263,482	-20,774	-0,109	0,048
-262,467	25,728	-0,056	-0,033
-261,453	-116,739	0,084	-0,011
-260,438	14,652	-0,118	-0,066
-259,424	-43,527	0,166	0,060
-258,409	639,582	0,072	0,132
-257,395	-200,000	-0,017	0,165
-256,380	-200,000	-0,007	-0,080
-255,365	359,451	0,120	0,172
-254,351	-200,000	-0,002	0,031
-253,336	46,464	0,023	-0,015
-252,322	191,548	-0,018	0,019
-251,307	239,941	-0,076	0,091
-250,292	-22,456	0,063	-0,027
-249,278	-75,663	0,167	0,042
-248,263	-164,738	0,036	0,001
-247,249	-200,000	-0,008	0,054
-246,234	-200,000	-0,004	-0,045
-245,219	412,129	-0,059	-0,090
-244,205	-200,000	-0,002	-0,015
-243,190	-200,000	0,040	0,182
-242,176	153,907	0,031	-0,030
-241,161	-51,847	-0,117	0,039
-240,146	-200,000	0,000	-0,021
-239,132	120,885	0,012	-0,011
-238,117	-139,415	-0,024	-0,002
-237,103	86,969	-0,043	-0,034
-236,088	-200,000	-0,035	0,139
-235,073	-36,477	0,057	-0,022
-234,059	200,562	-0,083	0,091
-233,044	-200,000	-0,012	0,050
-232,030	-50,933	-0,091	0,030
-231,015	22,971	-0,068	-0,040
-230,000	-200,000	-0,011	0,038
-228,986	800,000	-0,029	-0,083
-227,971	800,000	0,024	-0,067
-226,957	55,714	-0,005	-0,004
-225,942	-200,000	0,001	0,099
-224,927	-200,000	0,043	-0,203
-223,913	-200,000	0,022	-0,141
-222,898	-200,000	0,022	0,082
-221,884	31,292	0,050	0,031
-220,869	211,285	-0,052	-0,058
-219,855	681,415	0,059	-0,110
-218,840	186,051	0,031	0,032
-217,825	275,550	-0,070	-0,089
-216,811	210,902	0,055	-0,062
-215,796	-9,467	-0,091	0,043
-214,782	-13,701	0,054	-0,025
-213,767	657,152	0,078	-0,144
-212,752	-200,000	-0,006	-0,049
-211,738	800,000	0,065	0,164
-210,723	385,902	0,095	-0,141
-209,709	84,637	-0,035	-0,027
-208,694	-200,000	0,040	-0,226
-207,679	-200,000	-0,030	-0,186
-206,665	42,333	0,055	0,036
-205,650	-55,796	0,078	-0,025
-204,636	800,000	0,016	0,037
-203,621	61,390	-0,127	0,090
-202,606	259,909	-0,066	-0,082
-201,592	-56,948	0,079	-0,025
-200,577	-200,000	-0,027	-0,122
-199,563	-200,000	0,005	0,043
-198,548	245,019	0,063	0,075
-197,533	344,961	-0,032	0,045
-196,519	782,919	0,035	0,068
-195,504	-65,177	-0,116	0,033
-194,490	324,356	-0,061	-0,083
-193,475	800,000	0,045	0,132
-192,460	-200,000	0,006	-0,034
-191,446	479,699	-0,056	-0,092
-190,431	591,310	0,092	0,162
-189,417	-171,651	0,072	-0,002
-188,402	115,328	0,025	-0,021
-187,387	-200,000	0,003	-0,071
-186,373	-200,000	0,003	-0,158
-185,358	21,486	0,082	0,048
-184,344	800,000	0,030	0,093
-183,329	15,845	-0,109	-0,061
-182,315	608,331	0,023	0,042
-181,300	-87,816	-0,051	-0,011
-180,285	111,873	-0,089	-0,077
-179,271	484,246	-0,039	0,063
-178,256	143,236	-0,039	0,037
-177,242	8,391	-0,051	-0,027
-176,227	7,416	0,130	-0,069
-175,212	88,254	0,120	0,095
-174,198	-33,885	-0,240	-0,094
-173,183	-200,000	-0,016	-0,142
-172,169	48,230	0,101	-0,067
-171,154	-200,000	0,004	-0,135
-170,139	-68,847	0,076	-0,021
-169,125	34,655	-0,109	-0,068
-168,110	168,959	-0,036	-0,036
-167,096	-137,856	0,079	0,006
-166,081	40,382	-0,087	0,056
-165,066	-20,983	-0,127	-0,055
-164,052	-17,500	0,061	-0,027
-163,037	35,963	0,014	0,009
-162,023	-124,425	0,057	-0,006
-161,008	18,215	0,098	0,056
-159,993	-200,000	-0,014	0,043
-158,979	-136,310	-0,148	-0,012
-157,964	800,000	0,034	-0,081
-156,950	-200,000	-0,026	0,096
-155,935	-200,000	-0,007	0,024
-154,920	676,329	0,018	-0,033
-153,906	354,503	-0,042	0,060
-152,891	199,205	-0,039	0,042
-151,877	-77,788	0,113	0,027
-150,862	439,161	-0,083	-0,130
-149,847	34,132	-0,082	-0,051
-148,833	99,636	0,023	-0,019
-147,818	122,229	-0,066	0,058
-146,804	-40,064	-0,068	-0,025
-145,789	125,301	-0,131	0,118
-144,775	108,921	0,084	-0,071
-143,760	-141,264	0,069	0,005
-142,745	-36,438	-0,123	-0,047
-141,731	-200,000	-0,016	0,184
-140,716	133,801	-0,111	0,102
-139,702	-41,437	-0,039	0,014
-138,687	-142,403	-0,062	0,004
-137,672	42,606	-0,075	-0,048
-136,658	64,836	-0,039	0,028
-135,643	800,000	0,015	-0,043
-134,629	131,840	-0,074	0,068
-133,614	-75,769	0,094	0,023
-132,599	800,000	-0,049	0,151
-131,585	-200,000	0,022	0,108
-130,570	-156,168	-0,068	0,003
-129,556	-200,000	-0,006	-0,165
-128,541	-12,219	-0,076	0,035
-127,526	-200,000	-0,018	-0,081
-126,512	-200,000	-0,003	-0,065
-125,497	800,000	-0,037	0,092
-124,483	800,000	0,067	0,183
-123,468	-60,165	0,041	-0,012
-122,453	800,000	0,022	-0,067
-121,439	-200,000	0,000	-0,093
-120,424	91,934	-0,102	-0,082
-119,410	224,843	-0,141	0,163
