DTS Sentinel unit serial number:	SN410029Multiplexer serial number:	ORYXHardware model number:	OX2-SRSoftware version number:	ORYX F/W v4,00 Oryx Data Collector v3.7.2.0data status	okinstallation	B6 Nyhavnadifferential loss correction	single-endedforward channel	channel 2reverse channel	N/Adate	2023/12/08time	21:45:08forward acquisition time	300,00reverse acquisition time	0,00gamma	499,1914k internal	0,3158k external	0,3158temperature offset calibration	1,0000default loss term (dB/km)	0,3820temperature slope calibration	1,0000multiplexer offset coefficient	1,0000multiplexer slope coefficient	1,0000fibre end	0,00T internal ref (°C)	15,25T ext. ref 1 (°C)	-1,28T ext. ref 2 (°C)	-1,28length (m)	temperature (°C)	Stokes	anti-Stokes-744,400	-108,177	0,082	-0,013
-743,385	-62,094	-0,269	-0,082
-742,371	-111,129	0,115	0,017
-741,356	-71,849	-0,392	0,107
-740,342	-79,319	0,100	0,025
-739,327	-181,997	-0,397	-0,005
-738,312	587,458	-0,037	-0,067
-737,298	-136,258	-0,450	0,038
-736,283	172,105	0,024	0,025
-735,269	-125,163	-0,226	0,025
-734,254	419,849	0,055	0,088
-733,239	-32,185	-0,350	-0,144
-732,225	-170,568	0,184	0,005
-731,210	-128,541	-0,082	0,008
-730,196	533,206	-0,109	-0,192
-729,181	-200,000	-0,008	0,102
-728,167	-119,239	-0,049	-0,006
-727,152	108,115	0,060	0,053
-726,137	476,791	-0,035	-0,058
-725,123	-200,000	0,029	-0,152
-724,108	-0,653	-0,057	0,029
-723,094	118,191	-0,117	-0,106
-722,079	64,769	-0,108	-0,080
-721,064	-131,843	0,049	-0,005
-720,050	800,000	0,044	-0,097
-719,035	-88,306	0,059	0,013
-718,021	-200,000	0,022	-0,137
-717,006	-119,862	-0,121	0,015
-715,991	76,300	-0,181	-0,141
-714,977	234,722	-0,105	-0,128
-713,962	-108,971	-0,086	-0,013
-712,948	800,000	-0,020	-0,060
-711,933	800,000	-0,031	-0,087
-710,918	800,000	-0,025	0,072
-709,904	800,000	-0,031	0,085
-708,889	-80,679	-0,029	0,007
-707,875	310,880	-0,103	0,142
-706,860	-82,256	-0,090	0,021
-705,845	93,709	0,049	-0,041
-704,831	87,207	0,029	0,024
-703,816	204,527	-0,129	-0,148
-702,802	65,142	-0,172	-0,128
-701,787	146,458	-0,025	-0,024
-700,772	275,362	-0,070	-0,092
-699,758	142,606	-0,034	0,034
-698,743	-200,000	0,012	0,061
-697,729	118,879	0,041	-0,037
-696,714	0,378	0,028	0,015
-695,699	11,312	-0,054	-0,030
-694,685	53,313	-0,067	0,047
-693,670	-147,617	-0,070	0,004
-692,656	255,284	0,083	0,105
-691,641	93,239	0,056	0,047
-690,627	-158,363	-0,028	0,001
-689,612	42,663	-0,076	-0,051
-688,597	-87,561	-0,068	-0,015
-687,583	-62,441	-0,163	-0,049
-686,568	-107,269	-0,087	-0,014
-685,554	-200,000	0,003	-0,067
-684,539	360,662	0,058	-0,085
-683,524	156,695	-0,081	-0,082
-682,510	-118,997	0,057	0,007
-681,495	800,000	-0,040	-0,082
-680,481	-200,000	0,010	-0,142
-679,466	-200,000	-0,017	-0,150
-678,451	-117,397	-0,075	0,010
-677,437	362,406	0,089	-0,132
-676,422	139,056	0,048	0,047
-675,408	-95,518	-0,146	0,028
-674,393	-145,498	-0,091	0,006
-673,378	800,000	0,083	-0,190
-672,364	-200,000	-0,002	0,033
-671,349	-4,263	0,025	0,013
-670,335	-92,685	0,157	-0,032
-669,320	1,906	-0,184	-0,097
-668,305	-118,154	0,077	0,010
-667,291	199,614	0,038	0,043
-666,276	382,041	-0,050	-0,076
-665,262	515,808	0,124	-0,213
-664,247	101,737	-0,114	0,098
-663,232	307,098	0,080	0,110
-662,218	-121,469	0,149	0,018
-661,203	133,492	-0,043	-0,041
-660,189	-200,000	-0,003	-0,042
-659,174	16,773	-0,070	-0,041
-658,159	-53,008	-0,102	0,034
-657,145	-200,000	-0,003	-0,013
-656,130	-200,000	-0,028	-0,097
-655,116	-157,726	-0,062	0,003
-654,101	-200,000	0,002	-0,031
-653,086	-200,000	-0,019	0,094
-652,072	134,290	0,074	-0,071
-651,057	800,000	-0,047	-0,114
-650,043	800,000	0,018	0,042
-649,028	131,888	-0,036	0,034
-648,014	-118,301	-0,034	0,004
-646,999	-200,000	-0,020	0,099
-645,984	800,000	-0,024	-0,055
-644,970	104,992	0,063	0,054
-643,955	-200,000	-0,010	-0,079
-642,941	135,346	-0,076	-0,073
-641,926	-98,624	-0,035	-0,006
-640,911	-200,000	0,004	-0,068
-639,897	30,895	-0,085	-0,053
-638,882	38,173	0,042	-0,028
-637,868	697,745	0,036	-0,069
-636,853	490,292	-0,056	-0,095
-635,838	36,025	0,070	-0,045
-634,824	-200,000	0,004	-0,058
-633,809	68,326	0,019	0,014
-632,795	78,482	-0,084	0,066
-631,780	-97,829	0,145	0,027
-630,765	800,000	-0,024	0,053
-629,751	-200,000	-0,024	-0,096
-628,736	-19,657	-0,049	0,022
-627,722	-82,478	-0,134	0,032
-626,707	408,913	0,023	0,035
-625,692	183,164	0,089	0,097
-624,678	-179,570	-0,088	0,001
-623,663	52,256	0,002	-0,001
-622,649	176,839	-0,122	-0,131
-621,634	49,485	-0,087	0,060
-620,619	-200,000	0,005	0,021
-619,605	127,436	0,007	-0,007
-618,590	8,326	0,221	0,122
-617,576	-200,000	0,029	0,118
-616,561	-200,000	-0,016	-0,075
-615,546	-67,796	-0,075	0,021
-614,532	278,598	-0,089	-0,117
-613,517	-30,161	-0,079	-0,033
-612,503	-94,507	-0,088	0,017
-611,488	257,321	0,072	-0,091
-610,474	-200,000	-0,007	0,027
-609,459	722,495	-0,058	0,114
-608,444	-60,657	-0,133	0,041
-607,430	800,000	-0,014	-0,043
-606,415	181,937	-0,117	0,127
-605,401	121,374	0,016	0,014
-604,386	-33,887	0,172	0,069
-603,371	-64,741	-0,024	-0,007
-602,357	9,297	-0,052	-0,029
-601,342	551,304	0,065	-0,114
-600,328	-200,000	-0,020	0,064
-599,313	-64,746	-0,149	0,044
-598,298	245,909	0,033	0,040
-597,284	-200,000	-0,011	-0,057
-596,269	-200,000	0,007	-0,130
-595,255	-55,346	0,109	0,036
-594,240	24,760	-0,017	0,010
-593,225	140,605	0,047	-0,045
-592,211	-200,000	-0,005	-0,062
-591,196	-31,309	0,044	-0,018
-590,182	580,561	0,005	-0,008
-589,167	-200,000	0,001	0,134
-588,152	800,000	0,045	0,106
-587,138	-200,000	0,011	0,098
-586,123	-200,000	0,021	-0,096
-585,109	63,600	-0,060	0,044
-584,094	-98,930	-0,064	-0,012
-583,079	412,395	-0,024	0,038
-582,065	72,314	-0,032	0,024
-581,050	-115,594	0,066	0,009
-580,036	38,695	-0,152	-0,099
-579,021	10,941	-0,100	0,056
-578,006	-85,697	-0,024	-0,005
-576,992	99,800	-0,049	0,041
-575,977	800,000	0,030	0,081
-574,963	51,946	-0,079	-0,055
-573,948	-200,000	0,019	-0,088
-572,934	-48,689	-0,061	-0,021
-571,919	-58,407	0,094	-0,030
-570,904	271,497	-0,081	0,105
-569,890	800,000	0,043	0,111
-568,875	-58,905	0,072	0,023
-567,861	-200,000	0,017	0,119
-566,846	28,130	0,064	0,039
-565,831	393,777	0,080	0,123
-564,817	-159,697	0,041	-0,002
-563,802	167,623	0,015	-0,016
-562,788	-200,000	0,025	-0,131
-561,773	86,237	0,039	0,032
-560,758	20,307	-0,115	-0,068
-559,744	81,200	0,164	0,129
-558,729	-83,201	0,196	-0,046
-557,715	-19,764	-0,197	-0,089
-556,700	-200,000	-0,026	-0,171
-555,685	3,883	-0,048	-0,026
-554,671	-200,000	0,022	0,082
-553,656	370,062	-0,069	0,103
-552,642	-41,991	-0,070	0,026
-551,627	800,000	-0,019	0,059
-550,612	-200,000	0,014	0,079
-549,598	800,000	-0,012	-0,033
-548,583	208,804	0,032	-0,037
-547,569	799,002	-0,076	-0,155
-546,554	-119,848	-0,041	0,005
-545,539	-63,784	0,024	0,007
-544,525	-25,860	-0,022	0,010
-543,510	-200,000	-0,023	0,104
-542,496	-200,000	0,027	-0,179
-541,481	-200,000	-0,046	-0,249
-540,466	48,932	0,030	-0,021
-539,452	56,075	-0,056	0,040
-538,437	145,759	0,021	0,020
-537,423	800,000	0,009	0,028
-536,408	485,414	0,025	-0,042
-535,393	-200,000	0,022	-0,076
-534,379	-200,000	-0,011	-0,088
-533,364	-29,025	-0,083	0,035
-532,350	48,443	0,069	-0,047
-531,335	122,835	0,061	0,055
-530,321	177,007	-0,119	-0,127
-529,306	627,645	0,039	-0,072
-528,291	358,858	-0,090	-0,132
-527,277	7,981	-0,156	-0,085
-526,262	384,961	-0,110	-0,166
-525,248	-200,000	-0,019	-0,115
-524,233	241,542	0,014	0,017
-523,218	439,831	-0,044	0,070
-522,204	-200,000	-0,002	0,080
-521,189	-200,000	-0,019	-0,157
-520,175	112,559	-0,052	-0,046
-519,160	-101,473	-0,003	-0,001
-518,145	800,000	-0,074	0,155
-517,131	20,826	-0,074	0,044
-516,116	-174,516	0,037	-0,001
-515,102	1,214	-0,067	0,035
-514,087	-81,294	0,126	-0,030
-513,072	-200,000	0,051	-0,203
-512,058	-111,880	-0,156	-0,023
-511,043	262,823	-0,003	-0,004
-510,029	800,000	0,048	0,102
-509,014	-200,000	-0,001	-0,012
-507,999	168,731	-0,058	-0,060
-506,985	76,744	-0,075	-0,058
-505,970	-70,023	0,081	0,022
-504,956	-200,000	-0,028	-0,095
-503,941	-160,279	0,103	-0,004
-502,926	246,691	-0,069	-0,085
-501,912	-42,072	0,081	0,030
-500,897	-101,968	0,114	0,020
-499,883	800,000	0,037	-0,086
-498,868	-23,771	-0,069	-0,030
-497,853	64,034	-0,068	0,050
-496,839	-117,835	0,008	-0,001
-495,824	800,000	0,025	0,054
-494,810	113,803	-0,101	-0,090
-493,795	800,000	-0,049	0,112
-492,781	800,000	0,086	-0,206
-491,766	-200,000	-0,005	-0,159
-490,751	198,794	-0,075	-0,084
-489,737	-70,818	0,054	0,015
-488,722	709,243	-0,021	0,040
-487,708	648,562	0,037	-0,070
-486,693	800,000	0,040	-0,096
-485,678	-200,000	-0,007	-0,048
-484,664	-200,000	0,013	-0,044
-483,649	-171,846	-0,042	0,001
-482,635	516,498	0,057	-0,097
-481,620	159,982	-0,101	0,103
-480,605	-186,567	-0,099	-0,001
-479,591	-115,453	-0,145	-0,020
-478,576	800,000	0,019	-0,048
-477,562	95,474	-0,007	-0,006
-476,547	-200,000	0,002	0,017
-475,532	-154,743	0,073	-0,003
-474,518	-81,417	-0,074	0,018
-473,503	-42,255	0,088	-0,033
-472,489	140,662	-0,080	-0,077
-471,474	-200,000	0,010	0,057
-470,459	151,891	0,023	-0,023
-469,445	-108,013	-0,109	-0,017
-468,430	-200,000	-0,011	-0,063
-467,416	-200,000	-0,012	-0,062
-466,401	83,267	0,030	-0,024
-465,386	-200,000	0,029	0,140
-464,372	461,008	0,036	-0,059
-463,357	-200,000	-0,001	-0,084
-462,343	191,381	0,027	-0,030
-461,328	-58,416	-0,044	0,014
-460,313	-59,535	0,046	-0,014
-459,299	-200,000	-0,010	0,050
-458,284	326,225	-0,022	0,031
-457,270	373,690	-0,027	0,041
-456,255	800,000	-0,005	-0,015
-455,241	-200,000	0,021	-0,069
-454,226	-200,000	0,013	-0,160
-453,211	800,000	-0,062	0,156
-452,197	366,888	-0,045	0,067
-451,182	434,091	0,020	-0,031
-450,168	187,760	-0,039	0,042
-449,153	45,640	0,088	0,059
-448,138	-200,000	0,018	0,083
-447,124	315,044	-0,105	0,144
-446,109	36,192	-0,034	-0,022
-445,095	-44,405	0,129	0,047
-444,080	-160,645	0,067	0,003
-443,065	-154,571	-0,138	-0,007
-442,051	217,273	-0,082	-0,095
-441,036	158,397	0,040	0,040
-440,022	-200,000	-0,008	0,093
-439,007	-200,000	0,039	-0,190
-437,992	320,903	0,025	-0,035
-436,978	217,270	-0,011	0,013
-435,963	-200,000	0,018	0,175
-434,949	691,719	-0,057	0,109
-433,934	800,000	0,032	0,084
-432,919	-200,000	-0,007	0,084
-431,905	-200,000	0,011	-0,055
-430,890	74,313	0,073	0,056
-429,876	123,080	-0,090	-0,083
-428,861	295,905	-0,083	0,111
-427,846	-63,805	0,062	-0,018
-426,832	-200,000	0,010	0,043
-425,817	-24,450	0,110	0,048
-424,803	-200,000	0,004	0,029
-423,788	-146,043	0,041	0,003
-422,773	-158,301	0,150	-0,006
-421,759	41,313	0,064	-0,042
-420,744	-91,051	0,069	0,014
-419,730	-200,000	0,025	0,107
-418,715	-66,456	0,050	-0,014
-417,701	-200,000	0,033	0,126
-416,686	195,001	-0,036	0,040
-415,671	800,000	-0,067	0,141
-414,657	107,611	0,185	0,160
-413,642	800,000	-0,056	0,139
-412,628	-78,012	0,043	0,011
-411,613	800,000	0,064	-0,195
-410,598	-135,355	0,029	0,002
-409,584	241,090	0,026	-0,031
-408,569	-109,413	0,054	0,008
-407,555	231,684	0,025	-0,030
-406,540	-200,000	-0,005	0,201
-405,525	744,878	0,039	0,077
-404,511	-127,336	-0,024	0,002
-403,496	156,333	-0,126	-0,127
-402,482	325,293	0,172	0,240
-401,467	46,608	-0,044	-0,030
-400,452	-65,825	-0,091	0,026
-399,438	800,000	0,066	0,155
-398,423	135,763	-0,120	0,114
-397,409	-200,000	-0,008	0,080
-396,394	800,000	0,036	0,084
-395,379	544,048	0,016	0,028
-394,365	800,000	-0,023	-0,071
-393,350	-138,080	-0,084	0,007
-392,336	-61,894	0,155	0,047
-391,321	129,773	-0,117	0,109
-390,306	106,335	0,084	-0,072
-389,292	-96,894	0,191	-0,036
-388,277	-148,982	-0,163	-0,009
-387,263	-14,031	0,058	-0,027
-386,248	149,179	0,088	0,087
-385,233	33,968	-0,104	0,065
-384,219	452,102	-0,044	0,071
-383,204	800,000	0,014	-0,035
-382,190	573,261	-0,030	-0,053
-381,175	-46,446	0,093	0,033
-380,160	-200,000	0,009	-0,048
-379,146	-81,373	0,075	0,018
-378,131	800,000	0,070	0,150
-377,117	-42,085	-0,091	-0,034
-376,102	42,371	-0,120	-0,079
-375,088	75,190	0,131	0,100
-374,073	133,752	0,058	0,054
-373,058	620,621	0,072	0,132
-372,044	-122,574	-0,106	-0,012
-371,029	-167,042	0,019	-0,001
-370,015	-178,274	-0,078	0,001
-369,000	-106,897	0,112	0,018
-367,985	-200,000	-0,029	-0,158
-366,971	-200,000	0,018	0,108
-365,956	305,357	-0,004	0,006
-364,942	-181,976	0,034	-0,000
-363,927	800,000	0,008	-0,019
-362,912	-23,222	-0,124	0,054
-361,898	-88,784	-0,054	-0,012
-360,883	-54,646	0,032	0,010
-359,869	-155,093	-0,157	-0,007
-358,854	201,185	0,023	-0,026
-357,839	142,076	-0,075	-0,073
-356,825	169,954	0,062	0,064
-355,810	-86,999	-0,081	-0,018
-354,796	26,464	0,077	0,046
-353,781	-200,000	-0,030	-0,100
-352,766	-200,000	0,016	-0,164
-351,752	-200,000	-0,055	0,186
-350,737	-200,000	-0,006	0,085
-349,723	-200,000	0,004	0,057
-348,708	-17,635	-0,076	0,035
-347,693	31,363	0,121	-0,075
-346,679	-77,668	-0,075	-0,019
-345,664	-200,000	0,017	-0,137
-344,650	-200,000	0,015	-0,167
-343,635	1,930	0,077	0,040
-342,620	-135,053	0,125	0,011
-341,606	13,473	-0,077	-0,043
-340,591	-45,687	-0,145	0,052
-339,577	800,000	-0,020	-0,052
-338,562	92,053	0,034	-0,027
-337,548	-97,656	-0,051	-0,010
-336,533	168,652	0,046	-0,048
-335,518	153,316	0,029	0,029
-334,504	485,023	-0,017	-0,028
-333,489	3,508	0,147	-0,078
-332,475	-57,777	0,084	-0,026
-331,460	228,393	0,074	0,088
-330,445	-200,000	0,035	-0,114
-329,431	230,715	0,012	0,014
-328,416	-54,214	0,031	0,010
-327,402	-200,000	-0,007	0,037
-326,387	123,332	0,036	-0,033
-325,372	800,000	-0,040	-0,088
-324,358	-200,000	0,011	-0,067
-323,343	800,000	-0,041	-0,098
-322,329	71,753	-0,068	0,051
-321,314	-120,518	0,206	-0,025
-320,299	-200,000	0,006	0,067
-319,285	-130,577	-0,162	0,016
-318,270	-73,532	-0,043	-0,011
-317,256	151,697	0,092	-0,091
-316,241	-200,000	-0,012	0,119
-315,226	187,979	0,071	0,077
-314,212	-74,199	0,155	0,040
-313,197	-183,325	0,008	0,000
-312,183	502,153	-0,095	0,160
-311,168	-91,067	-0,178	0,037
-310,153	-200,000	-0,020	0,084
-309,139	94,675	-0,130	-0,107
-308,124	308,082	-0,125	0,170
-307,110	-200,000	-0,016	0,126
-306,095	-19,794	-0,184	0,082
-305,080	437,957	0,033	0,052
-304,066	84,586	-0,033	0,026
-303,051	391,499	-0,077	-0,116
-302,037	800,000	0,042	0,092
-301,022	-120,659	-0,106	-0,013
-300,008	199,805	0,107	0,119
-298,993	-200,000	0,018	0,126
-297,978	-200,000	0,007	0,093
-296,964	800,000	0,051	0,106
-295,949	295,236	-0,070	-0,094
-294,935	-97,632	-0,145	-0,027
-293,920	-190,887	0,135	-0,001
-292,905	550,327	0,033	0,057
-291,891	-80,187	-0,005	0,001
-290,876	352,411	-0,048	0,069
-289,862	-110,627	-0,069	-0,010
-288,847	426,068	0,027	0,042
-287,832	112,499	-0,068	0,060
-286,818	58,947	0,056	-0,040
-285,803	135,851	0,063	-0,060
-284,789	380,686	0,032	-0,048
-283,774	-200,000	-0,009	0,051
-282,759	11,157	-0,058	-0,032
-281,745	-125,330	-0,129	0,014
-280,730	-118,905	0,174	-0,022
-279,716	-200,000	-0,015	-0,142
-278,701	48,079	0,078	-0,053
-277,686	71,584	0,086	-0,065
-276,672	5,441	0,065	-0,035
-275,657	800,000	-0,057	-0,148
-274,643	400,866	-0,027	0,041
-273,628	-200,000	0,018	-0,065
-272,613	197,340	0,071	-0,078
-271,599	472,000	0,039	0,064
-270,584	14,825	-0,107	0,061
-269,570	44,507	0,100	-0,066
-268,555	10,491	0,092	-0,050
-267,540	800,000	-0,057	0,177
-266,526	-200,000	-0,006	-0,196
-265,511	356,798	0,122	0,176
-264,497	-18,687	0,060	0,027
-263,482	149,218	0,078	0,076
-262,467	30,242	0,095	0,058
-261,453	-200,000	0,003	-0,013
-260,438	550,076	0,072	-0,126
-259,424	-91,267	-0,051	-0,010
-258,409	800,000	-0,042	0,085
-257,395	399,186	-0,038	-0,058
-256,380	279,167	0,034	-0,044
-255,365	-200,000	0,003	0,120
-254,351	-100,093	0,085	-0,015
-253,336	53,897	-0,093	0,065
-252,322	-200,000	-0,015	-0,049
-251,307	-200,000	-0,005	0,042
-250,292	644,248	0,041	0,075
-249,278	-200,000	0,024	0,092
-248,263	47,205	0,057	0,038
-247,249	40,055	0,147	-0,095
-246,234	135,849	-0,027	-0,025
-245,219	11,499	0,094	-0,052
-244,205	800,000	-0,021	-0,056
-243,190	-200,000	0,014	0,084
-242,176	-58,009	0,051	0,016
-241,161	800,000	-0,043	-0,090
-240,146	708,074	0,043	0,083
-239,132	446,987	-0,051	0,082
-238,117	-148,676	0,034	0,002
-237,103	5,726	-0,138	-0,073
-236,088	540,672	-0,039	-0,067
-235,073	-200,000	-0,015	-0,056
-234,059	-200,000	0,006	0,110
-233,044	579,894	0,073	-0,130
-232,030	-152,808	0,011	0,001
-231,015	-200,000	0,002	-0,105
-230,000	202,237	-0,112	-0,125
-228,986	114,383	0,138	-0,121
-227,971	113,530	0,112	-0,099
-226,957	-35,663	0,097	-0,038
-225,942	-200,000	-0,003	0,098
-224,927	334,948	-0,094	-0,132
-223,913	-200,000	-0,001	-0,031
-222,898	-200,000	-0,004	0,037
-221,884	130,012	-0,098	-0,091
-220,869	-21,023	0,075	0,033
-219,855	-200,000	-0,018	0,107
-218,840	-104,668	0,171	-0,028
-217,825	-200,000	0,010	0,046
-216,811	-200,000	0,010	0,042
-215,796	-200,000	0,011	0,064
-214,782	-49,646	-0,037	0,013
-213,767	-77,532	0,100	-0,025
-212,752	-200,000	0,027	0,108
-211,738	504,355	-0,004	-0,007
-210,723	-113,695	0,030	0,004
-209,709	85,160	-0,083	-0,065
-208,694	-131,488	-0,043	0,004
-207,679	-68,380	-0,042	-0,012
-206,665	455,441	0,071	-0,114
-205,650	113,336	0,035	-0,031
-204,636	521,366	0,056	-0,095
-203,621	-200,000	0,024	0,125
-202,606	-200,000	-0,028	0,102
-201,592	-200,000	-0,019	-0,098
-200,577	-200,000	0,025	-0,122
-199,563	-200,000	0,007	-0,088
-198,548	61,597	-0,045	0,032
-197,533	-103,154	0,047	0,008
-196,519	-200,000	0,008	0,086
-195,504	159,350	-0,037	0,037
-194,490	122,214	-0,075	-0,068
-193,475	563,853	-0,037	-0,065
-192,460	-62,052	0,146	0,044
-191,446	184,063	-0,020	0,021
-190,431	-152,927	0,072	-0,004
-189,417	245,139	0,037	0,045
-188,402	-200,000	0,039	0,143
-187,387	-200,000	-0,008	-0,049
-186,373	143,338	-0,051	-0,049
-185,358	-200,000	-0,018	-0,112
-184,344	800,000	-0,032	0,101
-183,329	-131,211	0,105	0,010
-182,315	650,492	0,024	0,044
-181,300	-107,521	-0,035	-0,006
-180,285	-3,954	0,064	0,032
-179,271	129,873	0,062	-0,058
-178,256	-200,000	0,001	0,006
-177,242	-25,658	-0,060	0,026
-176,227	-97,345	0,086	0,016
-175,212	-2,948	-0,135	-0,068
-174,198	130,550	-0,055	-0,051
-173,183	-20,997	-0,056	-0,025
-172,169	623,142	0,066	0,121
-171,154	52,329	0,041	0,028
-170,139	3,572	0,016	-0,008
-169,125	775,318	0,063	-0,125
-168,110	-200,000	-0,013	-0,082
-167,096	563,616	0,043	0,075
-166,081	225,324	-0,069	0,081
-165,066	183,676	-0,046	-0,049
-164,052	593,286	0,029	-0,052
-163,037	800,000	-0,019	-0,047
-162,023	-26,799	0,099	0,042
-161,008	491,687	0,069	-0,115
-159,993	800,000	0,041	-0,093
-158,979	23,846	-0,084	0,050
-157,964	-200,000	-0,001	-0,058
-156,950	-200,000	0,016	0,064
-155,935	201,909	-0,046	-0,051
-154,920	-4,614	-0,042	-0,021
-153,906	-122,912	-0,122	-0,014
-152,891	-18,559	0,125	0,056
-151,877	-0,105	-0,038	0,019
-150,862	66,989	-0,190	-0,139
-149,847	444,297	-0,050	0,079
-148,833	800,000	0,024	0,073
-147,818	292,385	0,085	0,112
-146,804	294,983	-0,068	-0,089
-145,789	418,645	-0,044	0,069
-144,775	800,000	-0,025	0,054
-143,760	738,363	-0,015	-0,029
-142,745	-4,033	0,078	-0,039
-141,731	800,000	0,031	0,065
-140,716	85,974	-0,089	-0,070
-139,702	-75,997	0,016	-0,004
-138,687	-60,328	-0,139	0,042
-137,672	-122,876	-0,031	-0,004
-136,658	-180,686	-0,045	-0,001
-135,643	800,000	0,021	0,046
-134,629	295,880	0,040	-0,053
-133,614	-42,656	0,123	-0,045
-132,599	-63,929	-0,072	-0,021
-131,585	449,936	0,018	0,029
-130,570	-34,463	0,062	0,024
-129,556	800,000	0,052	-0,133
-128,541	-200,000	0,011	-0,085
-127,526	57,289	0,109	-0,076
-126,512	224,387	0,051	-0,060
-125,497	-200,000	0,013	0,043
-124,483	-72,296	0,076	0,020
-123,468	-99,694	0,054	-0,010
-122,453	173,840	-0,053	0,055
-121,439	-200,000	-0,022	0,198
-120,424	89,073	0,074	-0,059
-119,410	800,000	-0,008	-0,024
