DTS Sentinel unit serial number:	SN410029Multiplexer serial number:	ORYXHardware model number:	OX2-SRSoftware version number:	ORYX F/W v4,00 Oryx Data Collector v3.7.2.0data status	okinstallation	B6 Nyhavnadifferential loss correction	single-endedforward channel	channel 2reverse channel	N/Adate	2023/12/08time	17:45:08forward acquisition time	300,00reverse acquisition time	0,00gamma	499,1914k internal	0,3159k external	0,3159temperature offset calibration	1,0000default loss term (dB/km)	0,3820temperature slope calibration	1,0000multiplexer offset coefficient	1,0000multiplexer slope coefficient	1,0000fibre end	0,00T internal ref (°C)	15,18T ext. ref 1 (°C)	-1,26T ext. ref 2 (°C)	-1,26length (m)	temperature (°C)	Stokes	anti-Stokes-744,400	-20,987	0,119	-0,053
-743,385	-40,566	-0,246	-0,093
-742,371	-28,834	0,169	0,071
-741,356	-114,132	-0,214	0,030
-740,342	-140,147	0,080	-0,006
-739,327	-56,782	-0,326	0,106
-738,312	-200,000	0,031	-0,111
-737,298	-143,191	-0,339	0,024
-736,283	65,711	0,236	0,176
-735,269	-131,898	-0,315	0,030
-734,254	-12,507	0,141	0,068
-733,239	-45,154	-0,530	-0,193
-732,225	-43,879	0,275	0,101
-731,210	-166,496	-0,125	0,004
-730,196	225,173	-0,063	-0,075
-729,181	-39,234	-0,119	-0,046
-728,167	767,852	-0,022	0,044
-727,152	90,330	-0,045	-0,037
-726,137	-82,394	-0,072	-0,017
-725,123	-36,120	0,037	0,014
-724,108	284,158	-0,081	-0,108
-723,094	167,678	-0,159	-0,167
-722,079	800,000	0,053	-0,151
-721,064	260,716	-0,066	-0,085
-720,050	534,737	-0,096	-0,168
-719,035	-54,412	-0,106	0,035
-718,021	138,024	-0,070	-0,067
-717,006	158,899	-0,116	-0,119
-715,991	-7,552	-0,204	0,101
-714,977	-102,216	-0,060	-0,010
-713,962	-200,000	0,015	-0,191
-712,948	-200,000	-0,015	-0,112
-711,933	800,000	0,019	-0,053
-710,918	84,477	-0,104	-0,084
-709,904	-172,815	-0,040	0,001
-708,889	583,877	-0,086	-0,156
-707,875	-200,000	-0,007	-0,036
-706,860	-47,237	-0,033	-0,012
-705,845	800,000	-0,021	0,059
-704,831	-200,000	-0,018	0,065
-703,816	-43,298	-0,070	0,026
-702,802	253,378	0,049	0,062
-701,787	39,236	-0,105	0,069
-700,772	-112,042	-0,119	0,017
-699,758	326,993	0,049	-0,070
-698,743	-200,000	0,066	-0,218
-697,729	-125,962	0,078	0,009
-696,714	44,178	-0,077	-0,052
-695,699	800,000	-0,026	0,065
-694,685	-200,000	-0,007	-0,069
-693,670	-200,000	-0,017	-0,118
-692,656	148,346	0,078	-0,077
-691,641	-14,875	0,168	0,079
-690,627	502,544	-0,045	0,077
-689,612	700,864	-0,028	0,055
-688,597	322,487	-0,075	-0,105
-687,583	162,888	-0,093	-0,096
-686,568	800,000	-0,042	-0,102
-685,554	-89,790	-0,217	0,046
-684,539	119,232	-0,052	0,047
-683,524	117,918	-0,122	0,111
-682,510	-200,000	0,001	0,052
-681,495	-200,000	-0,013	-0,044
-680,481	10,193	-0,185	0,103
-679,466	479,479	-0,038	0,064
-678,451	501,438	-0,036	-0,062
-677,437	527,108	0,040	0,069
-676,422	242,163	0,057	0,070
-675,408	-49,144	-0,070	0,024
-674,393	77,067	0,088	0,068
-673,378	-200,000	-0,010	-0,076
-672,364	71,391	-0,100	-0,076
-671,349	358,390	0,031	-0,046
-670,335	76,504	-0,104	0,081
-669,320	237,012	-0,032	0,039
-668,305	67,551	0,120	0,090
-667,291	-11,159	0,072	-0,035
-666,276	-17,025	-0,072	0,033
-665,262	36,045	-0,042	0,027
-664,247	-200,000	-0,010	0,077
-663,232	-47,272	0,002	0,001
-662,218	-95,373	0,178	0,035
-661,203	-2,841	0,049	0,025
-660,189	-200,000	0,012	0,079
-659,174	-200,000	-0,026	-0,174
-658,159	319,530	0,021	0,029
-657,145	24,168	-0,006	-0,004
-656,130	436,456	-0,059	-0,095
-655,116	-200,000	-0,012	0,067
-654,101	-200,000	-0,006	0,089
-653,086	-65,051	-0,131	0,039
-652,072	800,000	0,040	-0,101
-651,057	-114,339	-0,102	-0,014
-650,043	-88,414	-0,208	-0,045
-649,028	-81,497	-0,040	-0,010
-648,014	800,000	0,019	-0,050
-646,999	408,184	0,070	-0,110
-645,984	800,000	0,065	0,154
-644,970	701,497	0,045	0,087
-643,955	-34,677	0,004	0,002
-642,941	117,726	0,055	0,050
-641,926	39,683	-0,076	0,050
-640,911	800,000	0,071	0,189
-639,897	-79,013	0,101	0,025
-638,882	-200,000	-0,026	0,109
-637,868	-53,823	0,036	0,012
-636,853	496,991	-0,114	-0,194
-635,838	-116,005	-0,161	-0,022
-634,824	26,471	0,104	-0,064
-633,809	800,000	-0,006	0,013
-632,795	800,000	-0,057	0,140
-631,780	-200,000	0,014	0,127
-630,765	-75,808	-0,209	-0,054
-629,751	-200,000	0,011	-0,075
-628,736	-200,000	-0,026	0,089
-627,722	-78,668	0,120	-0,030
-626,707	709,552	-0,028	0,055
-625,692	301,961	-0,123	0,167
-624,678	510,165	-0,032	0,055
-623,663	63,418	0,143	-0,105
-622,649	-200,000	-0,001	-0,047
-621,634	800,000	-0,010	-0,030
-620,619	145,934	-0,058	0,057
-619,605	400,818	0,046	0,071
-618,590	-200,000	-0,013	0,057
-617,576	-85,451	-0,112	0,025
-616,561	-200,000	0,004	0,027
-615,546	380,477	0,058	-0,088
-614,532	-0,994	-0,158	-0,082
-613,517	298,584	0,080	-0,108
-612,503	800,000	0,048	-0,136
-611,488	-200,000	-0,009	-0,031
-610,474	560,766	-0,051	0,092
-609,459	-200,000	-0,038	0,212
-608,444	318,631	-0,075	-0,104
-607,430	800,000	-0,027	-0,082
-606,415	800,000	-0,059	-0,148
-605,401	36,887	0,097	-0,063
-604,386	800,000	-0,066	0,162
-603,371	-200,000	-0,043	0,171
-602,357	-200,000	0,036	0,156
-601,342	800,000	-0,031	-0,079
-600,328	-200,000	-0,018	0,096
-599,313	-200,000	0,029	0,106
-598,298	-127,000	-0,091	-0,010
-597,284	155,220	0,054	0,054
-596,269	-105,453	0,068	0,011
-595,255	-48,777	0,122	0,043
-594,240	-120,509	-0,024	0,003
-593,225	293,448	0,019	-0,025
-592,211	297,942	-0,067	-0,090
-591,196	-147,689	0,066	0,004
-590,182	-15,363	-0,036	-0,017
-589,167	604,007	-0,029	0,052
-588,152	-19,820	0,099	0,045
-587,138	-200,000	-0,003	-0,102
-586,123	18,764	-0,081	-0,047
-585,109	304,079	-0,046	0,062
-584,094	93,167	-0,097	0,080
-583,079	-111,886	-0,024	-0,004
-582,065	800,000	-0,017	0,051
-581,050	288,482	-0,054	0,071
-580,036	33,908	-0,055	0,035
-579,021	-200,000	-0,015	-0,149
-578,006	99,827	-0,149	-0,127
-576,992	-88,678	0,092	-0,020
-575,977	800,000	-0,009	-0,025
-574,963	-200,000	-0,035	0,140
-573,948	-174,669	0,125	-0,003
-572,934	-7,180	-0,119	-0,059
-571,919	-125,879	-0,105	-0,011
-570,904	-65,402	0,039	0,011
-569,890	800,000	-0,012	0,025
-568,875	196,777	-0,050	0,056
-567,861	152,539	0,062	0,062
-566,846	-200,000	-0,029	0,137
-565,831	-104,105	0,023	-0,004
-564,817	326,600	-0,011	-0,015
-563,802	106,171	0,088	-0,076
-562,788	41,214	-0,028	-0,018
-561,773	-117,851	0,159	-0,021
-560,758	134,628	-0,023	0,021
-559,744	-132,148	-0,086	0,008
-558,729	102,117	-0,106	0,090
-557,715	-148,050	0,169	0,010
-556,700	28,306	-0,063	-0,039
-555,685	76,825	-0,047	0,036
-554,671	71,798	0,069	-0,052
-553,656	68,073	0,172	-0,128
-552,642	4,243	-0,056	-0,030
-551,627	621,994	0,020	0,037
-550,612	-71,306	-0,158	-0,043
-549,598	-51,523	0,142	-0,048
-548,583	-192,824	0,017	-0,000
-547,569	-200,000	-0,011	0,096
-546,554	-130,680	0,006	0,001
-545,539	800,000	-0,027	0,083
-544,525	10,332	0,086	-0,048
-543,510	97,197	0,065	-0,055
-542,496	63,706	0,052	-0,038
-541,481	-52,962	-0,132	0,044
-540,466	-200,000	-0,012	-0,107
-539,452	536,375	0,067	0,116
-538,437	800,000	-0,077	0,166
-537,423	-136,040	0,044	0,004
-536,408	-56,864	-0,069	0,022
-535,393	-200,000	0,005	0,094
-534,379	170,173	-0,038	-0,040
-533,364	-109,046	-0,073	-0,011
-532,350	240,997	0,085	0,104
-531,335	-200,000	-0,004	-0,038
-530,321	-143,019	-0,033	-0,002
-529,306	-32,043	0,079	-0,032
-528,291	-111,961	0,044	-0,006
-527,277	104,227	-0,102	-0,087
-526,262	-200,000	0,031	0,141
-525,248	-200,000	-0,002	-0,041
-524,233	800,000	0,032	-0,074
-523,218	-42,414	0,049	0,018
-522,204	-200,000	-0,019	0,188
-521,189	-80,495	-0,135	0,033
-520,175	-200,000	0,000	0,034
-519,160	306,967	0,088	-0,121
-518,145	-119,018	-0,077	-0,010
-517,131	134,423	-0,051	0,048
-516,116	-200,000	0,021	-0,123
-515,102	-75,416	0,076	-0,020
-514,087	524,490	0,031	-0,054
-513,072	800,000	-0,056	-0,156
-512,058	-200,000	-0,005	-0,142
-511,043	34,849	-0,072	-0,046
-510,029	-117,512	-0,055	-0,007
-509,014	26,256	-0,133	-0,081
-507,999	-200,000	0,005	0,093
-506,985	34,001	0,105	-0,067
-505,970	-10,969	-0,105	-0,051
-504,956	-111,451	0,051	-0,008
-503,941	49,825	-0,091	-0,063
-502,926	-77,191	0,106	-0,027
-501,912	132,456	-0,034	0,032
-500,897	-200,000	-0,016	0,077
-499,883	-123,236	0,068	-0,008
-498,868	96,676	-0,099	-0,083
-497,853	361,403	0,019	-0,029
-496,839	-156,464	0,069	0,003
-495,824	-36,865	0,030	-0,012
-494,810	76,378	0,057	-0,044
-493,795	88,463	-0,053	0,043
-492,781	54,327	0,049	0,034
-491,766	-172,818	-0,150	0,003
-490,751	800,000	0,079	0,176
-489,737	-200,000	0,005	0,017
-488,722	-47,394	-0,114	0,040
-487,708	-73,396	0,063	0,017
-486,693	253,337	0,067	-0,084
-485,678	-200,000	0,006	-0,046
-484,664	-200,000	0,011	0,137
-483,649	71,926	-0,078	-0,059
-482,635	-139,426	-0,067	-0,005
-481,620	-76,998	-0,044	0,011
-480,605	457,679	-0,038	0,062
-479,591	9,694	-0,047	0,026
-478,576	33,795	0,086	-0,054
-477,562	-113,790	-0,118	-0,017
-476,547	800,000	-0,048	0,129
-475,532	-200,000	-0,007	0,042
-474,518	92,233	-0,036	0,030
-473,503	-200,000	-0,013	0,066
-472,489	228,354	0,017	0,020
-471,474	800,000	0,040	0,081
-470,459	-200,000	0,023	-0,212
-469,445	-69,813	-0,136	-0,038
-468,430	-121,671	-0,014	-0,002
-467,416	-154,105	0,113	0,006
-466,401	523,915	0,051	0,088
-465,386	707,072	-0,026	-0,051
-464,372	-150,730	0,060	0,003
-463,357	63,397	-0,011	0,008
-462,343	-200,000	0,026	-0,137
-461,328	-180,734	0,074	0,001
-460,313	-77,829	0,135	-0,034
-459,299	-109,723	0,149	0,023
-458,284	800,000	-0,060	0,124
-457,270	2,708	-0,114	0,060
-456,255	-200,000	0,023	-0,083
-455,241	-200,000	0,032	0,119
-454,226	71,735	0,044	-0,033
-453,211	-200,000	0,012	-0,142
-452,197	-81,231	0,117	-0,028
-451,182	108,077	0,067	-0,058
-450,168	-200,000	0,010	0,045
-449,153	-94,707	0,103	0,020
-448,138	-128,764	-0,142	0,014
-447,124	93,059	0,036	-0,030
-446,109	60,719	0,082	-0,059
-445,095	800,000	0,082	-0,181
-444,080	-200,000	0,014	-0,085
-443,065	-200,000	0,036	0,124
-442,051	61,502	0,061	0,044
-441,036	123,655	0,017	0,016
-440,022	-168,164	-0,025	0,001
-439,007	45,223	-0,069	-0,046
-437,992	800,000	0,036	0,076
-436,978	388,796	0,019	0,028
-435,963	58,214	0,125	0,089
-434,949	174,482	-0,065	-0,068
-433,934	-4,593	0,052	-0,026
-432,919	800,000	-0,037	-0,116
-431,905	683,464	-0,075	-0,143
-430,890	285,671	0,019	-0,025
-429,876	-200,000	-0,012	-0,128
-428,861	222,574	0,107	0,125
-427,846	-23,897	-0,051	0,022
-426,832	285,173	0,062	0,081
-425,817	-38,426	-0,137	-0,053
-424,803	84,845	0,081	-0,064
-423,788	-200,000	-0,022	0,079
-422,773	800,000	-0,039	-0,104
-421,759	-24,492	0,022	0,009
-420,744	-200,000	0,042	-0,135
-419,730	593,761	-0,047	-0,085
-418,715	100,120	0,055	0,046
-417,701	-30,466	-0,117	-0,048
-416,686	-54,848	0,097	-0,032
-415,671	232,294	-0,032	-0,039
-414,657	456,453	-0,018	0,029
-413,642	178,334	-0,087	-0,092
-412,628	-69,471	-0,104	0,029
-411,613	800,000	-0,079	-0,162
-410,598	-200,000	-0,031	-0,117
-409,584	-37,497	0,133	-0,051
-408,569	-164,062	0,160	-0,005
-407,555	6,344	0,163	-0,088
-406,540	-200,000	0,010	-0,160
-405,525	183,931	-0,019	0,020
-404,511	-90,397	-0,105	-0,022
-403,496	106,636	-0,028	-0,025
-402,482	800,000	0,022	-0,052
-401,467	539,854	-0,062	0,108
-400,452	-200,000	-0,018	0,133
-399,438	144,699	0,081	0,078
-398,423	12,316	0,051	-0,029
-397,409	261,232	0,037	-0,047
-396,394	150,037	-0,020	0,020
-395,379	136,511	0,041	-0,039
-394,365	-102,261	0,079	-0,014
-393,350	409,611	-0,119	-0,184
-392,336	800,000	0,060	0,135
-391,321	242,996	-0,029	0,035
-390,306	-200,000	-0,008	-0,081
-389,292	-142,961	0,074	0,005
-388,277	-160,009	-0,114	0,004
-387,263	-200,000	-0,018	0,083
-386,248	149,855	0,050	0,050
-385,233	179,033	-0,041	0,044
-384,219	-200,000	-0,004	0,071
-383,204	-6,946	-0,065	-0,032
-382,190	12,341	0,077	-0,043
-381,175	648,809	0,041	-0,077
-380,160	219,091	0,072	0,084
-379,146	9,099	-0,057	0,031
-378,131	-200,000	0,033	0,130
-377,117	134,154	-0,116	0,109
-376,102	-182,291	-0,107	0,001
-375,088	158,212	0,071	-0,071
-374,073	-200,000	-0,019	-0,133
-373,058	198,072	0,028	-0,032
-372,044	-179,535	0,188	0,003
-371,029	800,000	-0,038	0,090
-370,015	-200,000	-0,018	-0,058
-369,000	-200,000	0,006	0,081
-367,985	90,098	-0,055	-0,045
-366,971	-200,000	-0,016	-0,195
-365,956	-200,000	-0,029	-0,103
-364,942	800,000	0,040	0,109
-363,927	-200,000	-0,019	-0,066
-362,912	-60,879	0,026	0,008
-361,898	383,556	0,042	-0,063
-360,883	-200,000	0,014	0,052
-359,869	800,000	0,051	-0,119
-358,854	-200,000	0,026	-0,123
-357,839	143,067	0,145	0,140
-356,825	696,488	0,095	0,181
-355,810	-82,639	0,087	-0,020
-354,796	123,533	-0,124	0,113
-353,781	103,537	-0,084	0,072
-352,766	-37,576	-0,164	-0,063
-351,752	482,201	-0,031	0,052
-350,737	144,547	0,067	0,065
-349,723	47,261	0,017	0,012
-348,708	-190,413	-0,135	-0,001
-347,693	-27,810	0,116	-0,048
-346,679	-200,000	0,005	-0,061
-345,664	800,000	-0,057	-0,135
-344,650	376,163	-0,023	-0,034
-343,635	800,000	0,022	0,044
-342,620	-62,855	0,128	0,038
-341,606	-193,880	0,201	-0,001
-340,591	-200,000	-0,004	0,057
-339,577	-31,848	-0,056	0,023
-338,562	-54,282	-0,113	0,037
-337,548	469,546	0,066	0,107
-336,533	315,282	0,062	0,085
-335,518	-11,104	-0,019	0,009
-334,504	-132,365	0,104	-0,010
-333,489	-200,000	-0,003	0,212
-332,475	-177,058	-0,034	-0,001
-331,460	-200,000	-0,018	-0,147
-330,445	-200,000	-0,037	-0,154
-329,431	-48,472	0,069	0,024
-328,416	800,000	0,067	0,137
-327,402	203,443	0,040	-0,045
-326,387	-200,000	0,000	-0,070
-325,372	800,000	-0,039	-0,093
-324,358	-200,000	-0,035	-0,125
-323,343	800,000	0,033	-0,098
-322,329	159,933	0,133	-0,135
-321,314	-200,000	-0,013	-0,090
-320,299	92,895	0,050	-0,041
-319,285	8,928	-0,139	0,076
-318,270	76,869	0,095	0,073
-317,256	800,000	-0,055	-0,128
-316,241	-200,000	0,017	0,152
-315,226	-10,370	0,052	0,025
-314,212	67,475	0,047	-0,035
-313,197	-200,000	-0,006	-0,108
-312,183	16,647	-0,068	0,039
-311,168	211,207	0,030	-0,034
-310,153	800,000	0,058	0,117
-309,139	91,118	0,027	-0,022
-308,124	-200,000	-0,015	0,119
-307,110	-115,123	0,079	-0,011
-306,095	34,383	0,079	0,050
-305,080	-135,850	-0,132	0,011
-304,066	-95,548	-0,123	0,024
-303,051	-166,373	-0,091	0,003
-302,037	217,613	-0,027	-0,032
-301,022	800,000	-0,012	0,028
-300,008	93,853	-0,057	0,047
-298,993	31,840	0,072	-0,045
-297,978	30,227	-0,059	0,036
-296,964	-200,000	-0,036	0,133
-295,949	503,782	-0,071	0,119
-294,935	272,878	-0,127	-0,162
-293,920	-10,130	-0,042	0,020
-292,905	30,129	0,114	0,070
-291,891	-22,835	0,097	-0,042
-290,876	-200,000	0,015	0,169
-289,862	19,556	-0,167	-0,097
-288,847	183,002	0,062	0,067
-287,832	52,011	-0,140	0,097
-286,818	-132,872	-0,050	0,005
-285,803	669,936	0,041	-0,077
-284,789	127,034	-0,105	0,096
-283,774	-200,000	0,028	0,104
-282,759	-200,000	0,005	-0,027
-281,745	-200,000	0,021	0,111
-280,730	-200,000	0,002	-0,027
-279,716	-200,000	-0,034	-0,120
-278,701	-200,000	-0,025	-0,084
-277,686	800,000	0,041	-0,098
-276,672	279,255	0,050	0,065
-275,657	19,835	0,163	0,095
-274,643	313,042	-0,042	-0,057
-273,628	-174,223	-0,049	0,001
-272,613	-200,000	0,014	-0,099
-271,599	-200,000	-0,013	0,116
-270,584	-190,151	-0,055	-0,000
-269,570	-9,981	-0,144	0,069
-268,555	-120,547	0,035	-0,004
-267,540	129,170	-0,041	-0,038
-266,526	39,582	-0,083	0,054
-265,511	-109,132	-0,066	-0,010
-264,497	-89,121	-0,028	-0,006
-263,482	-25,125	-0,123	-0,052
-262,467	374,271	-0,097	0,144
-261,453	-200,000	-0,019	-0,074
-260,438	-200,000	0,008	-0,124
-259,424	800,000	-0,021	0,049
-258,409	-85,886	-0,067	0,015
-257,395	-13,917	0,127	0,059
-256,380	381,574	0,101	0,151
-255,365	283,829	0,074	0,096
-254,351	-200,000	-0,016	0,088
-253,336	0,633	-0,080	0,041
-252,322	-41,947	0,095	-0,035
-251,307	-74,099	0,052	-0,014
-250,292	631,293	0,071	-0,131
-249,278	577,403	0,024	-0,043
-248,263	-178,621	0,140	0,002
-247,249	-8,133	-0,101	-0,049
-246,234	-200,000	0,014	-0,129
-245,219	-78,903	-0,101	0,025
-244,205	800,000	0,037	-0,081
-243,190	-144,326	-0,045	-0,003
-242,176	-200,000	-0,011	0,068
-241,161	-21,711	-0,059	0,026
-240,146	62,838	-0,088	0,063
-239,132	38,299	0,030	0,019
-238,117	-60,397	0,051	0,016
-237,103	115,358	0,019	-0,017
-236,088	-48,026	-0,030	-0,010
-235,073	-198,541	0,201	0,001
-234,059	-22,606	-0,038	0,016
-233,044	800,000	0,047	-0,107
-232,030	-86,807	-0,117	-0,026
-231,015	800,000	-0,060	-0,145
-230,000	-200,000	0,012	-0,069
-228,986	-54,265	0,152	0,050
-227,971	673,829	-0,075	-0,142
-226,957	-200,000	-0,001	0,059
-225,942	103,766	0,050	0,043
-224,927	324,665	-0,056	-0,078
-223,913	-200,000	-0,002	-0,026
-222,898	-85,735	0,091	-0,020
-221,884	50,443	-0,115	-0,078
-220,869	-32,436	0,182	-0,073
-219,855	-4,366	-0,034	-0,017
-218,840	9,194	0,053	-0,029
-217,825	-49,252	0,020	0,007
-216,811	-66,794	0,059	0,017
-215,796	-200,000	0,023	0,074
-214,782	145,071	0,073	0,070
-213,767	15,226	-0,102	0,057
-212,752	-82,637	0,112	-0,026
-211,738	36,773	0,036	-0,023
-210,723	-200,000	0,001	0,013
-209,709	103,713	-0,103	-0,087
-208,694	-54,111	-0,003	0,001
-207,679	-16,894	-0,087	-0,039
-206,665	800,000	-0,078	-0,176
-205,650	-200,000	-0,001	-0,031
-204,636	56,410	-0,056	0,039
-203,621	-200,000	-0,017	0,062
-202,606	-22,019	0,106	0,046
-201,592	800,000	0,024	0,062
-200,577	82,850	0,109	-0,086
-199,563	323,526	0,032	-0,044
-198,548	165,414	0,054	0,055
-197,533	-200,000	-0,002	0,033
-196,519	-14,936	-0,038	-0,018
-195,504	-110,550	0,060	-0,009
-194,490	-169,081	-0,122	-0,003
-193,475	337,046	-0,055	-0,077
-192,460	95,521	0,028	0,023
-191,446	-165,646	0,134	-0,004
-190,431	227,023	-0,054	0,063
-189,417	800,000	0,059	0,134
-188,402	-174,089	0,066	-0,001
-187,387	326,291	-0,069	0,095
-186,373	800,000	-0,017	0,051
-185,358	287,252	0,030	0,039
-184,344	-185,150	0,102	0,001
-183,329	165,437	0,046	0,046
-182,315	301,247	-0,096	-0,129
-181,300	-76,514	-0,050	0,013
-180,285	137,295	-0,041	0,039
-179,271	-15,109	-0,185	-0,085
-178,256	-188,645	-0,092	0,001
-177,242	-196,423	-0,068	0,000
-176,227	-200,000	0,008	0,046
-175,212	128,419	0,077	-0,071
-174,198	-107,521	-0,108	0,017
-173,183	-200,000	0,004	0,018
-172,169	-112,812	-0,078	0,011
-171,154	-200,000	0,011	-0,064
-170,139	-183,578	0,111	0,001
-169,125	495,509	0,091	0,152
-168,110	-200,000	0,004	-0,023
-167,096	-24,933	-0,080	0,034
-166,081	-200,000	0,011	-0,041
-165,066	-135,704	0,058	0,005
-164,052	-16,886	0,072	0,033
-163,037	103,962	-0,017	-0,015
-162,023	-38,076	0,063	0,024
-161,008	164,831	-0,102	0,104
-159,993	-139,144	-0,033	-0,003
-158,979	105,639	0,085	-0,073
-157,964	-16,007	0,080	0,036
-156,950	-168,459	-0,048	0,001
-155,935	-200,000	-0,008	-0,031
-154,920	402,716	0,073	0,111
-153,906	-200,000	0,005	-0,122
-152,891	-34,045	-0,063	-0,025
-151,877	-200,000	-0,006	-0,039
-150,862	547,349	-0,026	-0,046
-149,847	-54,458	0,053	-0,017
-148,833	-200,000	-0,008	-0,055
-147,818	171,460	0,029	0,030
-146,804	-200,000	-0,011	0,083
-145,789	-200,000	0,013	0,044
-144,775	51,948	-0,105	0,072
-143,760	87,541	0,103	0,082
-142,745	-55,378	-0,040	0,013
-141,731	800,000	0,051	0,111
-140,716	800,000	0,034	-0,085
-139,702	-27,422	0,037	-0,015
-138,687	-127,921	-0,146	-0,015
-137,672	179,638	0,073	-0,077
-136,658	-42,725	-0,022	-0,008
-135,643	469,772	-0,019	0,031
-134,629	-200,000	-0,013	-0,089
-133,614	-155,450	0,150	-0,007
-132,599	403,371	0,085	-0,130
-131,585	6,588	-0,036	-0,019
-130,570	242,633	-0,007	-0,009
-129,556	800,000	-0,043	0,093
-128,541	-108,164	-0,027	-0,004
-127,526	-161,692	-0,082	0,003
-126,512	-55,251	-0,065	0,021
-125,497	-107,970	-0,051	-0,008
-124,483	105,475	0,056	-0,047
-123,468	-200,000	0,021	-0,080
-122,453	-41,808	-0,123	0,045
-121,439	228,975	-0,022	0,026
-120,424	-40,122	0,066	0,025
