DTS Sentinel unit serial number:	SN410029Multiplexer serial number:	ORYXHardware model number:	OX2-SRSoftware version number:	ORYX F/W v4,00 Oryx Data Collector v3.7.2.0data status	okinstallation	B6 Nyhavnadifferential loss correction	single-endedforward channel	channel 2reverse channel	N/Adate	2023/12/09time	15:15:08forward acquisition time	300,00reverse acquisition time	0,00gamma	499,1914k internal	0,3133k external	0,3133temperature offset calibration	1,0000default loss term (dB/km)	0,3820temperature slope calibration	1,0000multiplexer offset coefficient	1,0000multiplexer slope coefficient	1,0000fibre end	0,00T internal ref (°C)	20,62T ext. ref 1 (°C)	4,45T ext. ref 2 (°C)	4,45length (m)	temperature (°C)	Stokes	anti-Stokes-744,400	-200,000	0,030	-0,100
-743,385	-84,853	-0,223	0,052
-742,371	347,716	0,082	0,120
-741,356	606,393	-0,130	0,242
-740,342	-75,903	0,044	-0,012
-739,327	-39,956	-0,273	0,105
-738,312	695,360	-0,107	0,209
-737,298	-84,515	-0,149	-0,035
-736,283	220,751	0,133	0,159
-735,269	-134,159	-0,259	0,023
-734,254	-200,000	0,005	-0,063
-733,239	-54,469	-0,385	-0,129
-732,225	7,605	0,031	0,017
-731,210	-103,288	-0,153	-0,027
-730,196	-200,000	-0,016	0,103
-729,181	-167,237	-0,035	0,001
-728,167	-200,000	-0,007	0,040
-727,152	-37,382	-0,071	-0,028
-726,137	-95,670	-0,056	0,011
-725,123	2,995	-0,146	0,078
-724,108	-200,000	-0,013	0,060
-723,094	764,226	-0,057	-0,116
-722,079	126,724	-0,126	-0,119
-721,064	-200,000	0,015	-0,120
-720,050	800,000	0,070	0,188
-719,035	800,000	0,054	0,140
-718,021	380,845	0,023	-0,035
-717,006	-200,000	-0,018	-0,060
-715,991	48,452	-0,149	-0,103
-714,977	-200,000	-0,004	-0,088
-713,962	-200,000	-0,007	0,039
-712,948	-127,693	-0,093	-0,010
-711,933	380,029	-0,044	0,068
-710,918	31,414	-0,105	0,067
-709,904	424,328	0,050	0,080
-708,889	61,738	-0,050	-0,037
-707,875	384,244	-0,023	0,036
-706,860	397,927	0,005	-0,008
-705,845	269,238	0,032	-0,042
-704,831	-200,000	-0,019	-0,141
-703,816	71,637	0,043	-0,033
-702,802	546,877	-0,028	0,049
-701,787	-200,000	0,009	-0,037
-700,772	101,452	-0,137	0,118
-699,758	-117,074	0,081	-0,011
-698,743	800,000	0,041	-0,097
-697,729	-200,000	0,016	0,146
-696,714	203,893	-0,050	-0,057
-695,699	-200,000	-0,031	-0,161
-694,685	360,383	-0,090	-0,135
-693,670	-200,000	0,007	-0,081
-692,656	-20,263	-0,072	0,033
-691,641	-200,000	0,009	0,046
-690,627	-200,000	0,014	0,050
-689,612	-200,000	0,003	0,050
-688,597	84,866	0,014	-0,011
-687,583	-3,363	-0,151	-0,078
-686,568	78,834	0,008	0,006
-685,554	26,096	-0,081	0,050
-684,539	-83,814	0,090	0,021
-683,524	-25,494	-0,052	-0,023
-682,510	-200,000	0,011	0,065
-681,495	74,851	0,052	-0,041
-680,481	-32,388	0,033	0,014
-679,466	-20,887	-0,050	0,023
-678,451	651,384	0,035	-0,067
-677,437	328,059	-0,128	0,182
-676,422	800,000	0,051	0,136
-675,408	-114,617	-0,032	0,005
-674,393	408,053	0,068	-0,107
-673,378	17,395	-0,114	-0,067
-672,364	-200,000	-0,002	-0,021
-671,349	69,387	0,072	-0,055
-670,335	-141,198	0,041	-0,003
-669,320	-200,000	-0,009	-0,043
-668,305	157,362	0,095	0,098
-667,291	-200,000	0,002	0,034
-666,276	274,509	-0,060	0,079
-665,262	99,061	0,023	0,020
-664,247	376,456	-0,079	0,120
-663,232	-200,000	-0,001	0,158
-662,218	55,239	-0,057	0,041
-661,203	-200,000	0,052	0,172
-660,189	-22,103	-0,014	0,006
-659,174	561,732	0,025	-0,045
-658,159	800,000	-0,085	0,177
-657,145	296,582	0,042	-0,057
-656,130	-200,000	-0,004	-0,017
-655,116	0,834	-0,030	-0,016
-654,101	800,000	0,004	0,011
-653,086	-110,484	-0,164	-0,025
-652,072	35,059	-0,125	0,081
-651,057	200,655	-0,035	0,040
-650,043	-21,626	0,055	-0,025
-649,028	-200,000	0,000	-0,114
-648,014	-200,000	0,015	-0,129
-646,999	800,000	-0,053	-0,125
-645,984	-20,218	-0,162	-0,074
-644,970	-200,000	0,005	-0,037
-643,955	800,000	-0,040	-0,109
-642,941	-200,000	-0,010	-0,140
-641,926	73,337	-0,052	0,040
-640,911	728,452	0,055	0,108
-639,897	-200,000	0,049	-0,176
-638,882	800,000	-0,046	0,127
-637,868	48,076	0,100	-0,069
-636,853	-121,567	-0,037	0,005
-635,838	800,000	0,025	-0,052
-634,824	329,957	0,034	-0,048
-633,809	-49,312	0,117	-0,041
-632,795	12,907	-0,096	-0,055
-631,780	59,105	0,119	-0,086
-630,765	-15,263	-0,076	-0,036
-629,751	-200,000	-0,009	-0,070
-628,736	-126,791	-0,133	-0,014
-627,722	454,274	-0,015	-0,025
-626,707	-137,519	0,042	0,003
-625,692	-25,046	0,105	0,046
-624,678	-200,000	-0,021	0,097
-623,663	115,503	-0,061	-0,055
-622,649	-161,942	-0,079	0,003
-621,634	164,810	-0,042	0,044
-620,619	77,767	-0,120	0,094
-619,605	0,556	-0,041	-0,022
-618,590	15,560	0,080	0,046
-617,576	-161,322	-0,082	0,003
-616,561	98,482	0,074	0,063
-615,546	34,303	-0,143	-0,092
-614,532	439,527	0,037	-0,060
-613,517	309,649	0,029	-0,040
-612,503	-200,000	-0,015	-0,074
-611,488	-107,752	0,129	0,021
-610,474	116,349	-0,086	0,078
-609,459	-21,798	-0,056	-0,025
-608,444	-200,000	-0,008	-0,071
-607,430	-85,114	-0,059	0,013
-606,415	253,572	-0,081	-0,102
-605,401	-1,951	-0,139	0,072
-604,386	39,367	-0,068	0,045
-603,371	800,000	-0,003	-0,008
-602,357	48,504	0,020	0,014
-601,342	-200,000	-0,010	-0,038
-600,328	-200,000	-0,013	-0,140
-599,313	96,445	-0,091	-0,077
-598,298	380,523	-0,049	-0,075
-597,284	-200,000	0,003	-0,054
-596,269	279,522	0,038	0,050
-595,255	606,370	0,087	-0,162
-594,240	-200,000	0,002	0,128
-593,225	270,961	-0,052	0,068
-592,211	800,000	0,028	-0,067
-591,196	1,612	-0,141	-0,075
-590,182	800,000	0,011	-0,031
-589,167	-200,000	-0,003	0,072
-588,152	248,881	0,027	0,033
-587,138	55,778	-0,081	-0,058
-586,123	-20,041	-0,062	-0,028
-585,109	502,328	0,094	-0,162
-584,094	-65,911	0,131	-0,038
-583,079	500,306	-0,033	0,057
-582,065	-77,468	-0,055	0,014
-581,050	-93,060	0,059	0,012
-580,036	431,131	-0,019	-0,030
-579,021	95,877	-0,072	0,061
-578,006	410,512	-0,050	-0,078
-576,992	800,000	0,034	-0,078
-575,977	291,107	0,026	0,035
-574,963	455,921	0,052	0,086
-573,948	-200,000	-0,005	0,111
-572,934	160,083	0,040	0,041
-571,919	-70,518	-0,197	0,055
-570,904	-200,000	0,017	-0,129
-569,890	66,803	-0,015	-0,011
-568,875	87,859	-0,073	0,060
-567,861	604,436	0,065	0,120
-566,846	254,157	0,125	0,157
-565,831	-200,000	0,030	-0,115
-564,817	191,867	-0,088	0,098
-563,802	-25,754	-0,095	-0,041
-562,788	-138,168	-0,194	-0,016
-561,773	225,609	0,135	0,162
-560,758	104,699	-0,024	0,021
-559,744	-200,000	-0,006	0,028
-558,729	388,457	-0,069	0,106
-557,715	-134,280	0,081	-0,007
-556,700	-200,000	-0,010	0,156
-555,685	-91,929	0,060	0,013
-554,671	800,000	0,033	-0,082
-553,656	-200,000	0,017	0,077
-552,642	135,796	-0,101	0,097
-551,627	800,000	0,038	0,108
-550,612	-200,000	0,004	0,016
-549,598	-200,000	-0,025	-0,098
-548,583	-17,684	-0,054	-0,025
-547,569	745,540	-0,069	-0,137
-546,554	-200,000	-0,013	-0,120
-545,539	79,147	0,051	-0,040
-544,525	376,592	0,035	-0,053
-543,510	-81,810	-0,173	-0,041
-542,496	-65,643	-0,085	-0,025
-541,481	-200,000	0,019	0,070
-540,466	-82,143	0,075	0,018
-539,452	-33,650	-0,127	0,051
-538,437	-0,976	-0,076	0,039
-537,423	17,953	0,149	0,087
-536,408	800,000	-0,017	0,042
-535,393	739,305	0,022	0,043
-534,379	676,559	-0,047	-0,090
-533,364	800,000	-0,028	0,062
-532,350	-200,000	-0,020	0,100
-531,335	-42,969	0,068	0,025
-530,321	-200,000	0,006	-0,038
-529,306	77,453	-0,130	-0,102
-528,291	800,000	-0,026	-0,078
-527,277	-200,000	-0,031	0,135
-526,262	83,988	-0,020	-0,016
-525,248	-200,000	-0,002	-0,124
-524,233	295,848	0,052	0,070
-523,218	307,571	-0,106	0,147
-522,204	678,144	-0,086	0,165
-521,189	-200,000	-0,004	0,059
-520,175	-53,673	-0,054	-0,018
-519,160	-65,901	-0,102	0,030
-518,145	-79,686	0,136	-0,034
-517,131	508,501	0,011	0,019
-516,116	18,309	0,014	-0,008
-515,102	140,442	0,035	-0,034
-514,087	401,318	-0,048	0,075
-513,072	278,088	0,065	-0,086
-512,058	-200,000	0,006	-0,037
-511,043	21,342	0,077	0,046
-510,029	-200,000	-0,002	0,093
-509,014	63,850	0,144	0,106
-507,999	-38,133	0,045	-0,018
-506,985	80,877	-0,094	-0,075
-505,970	424,878	-0,065	-0,103
-504,956	800,000	0,064	-0,146
-503,941	-200,000	-0,036	0,124
-502,926	-200,000	-0,020	0,110
-501,912	104,349	0,062	-0,053
-500,897	194,517	0,060	0,067
-499,883	-64,156	-0,050	-0,015
-498,868	-123,509	0,112	-0,013
-497,853	73,350	0,116	-0,089
-496,839	-198,468	-0,053	0,000
-495,824	800,000	0,106	0,228
-494,810	-200,000	-0,021	0,075
-493,795	124,582	-0,053	0,050
-492,781	187,706	0,021	-0,023
-491,766	302,255	-0,051	-0,070
-490,751	-200,000	0,009	0,063
-489,737	-200,000	0,027	0,139
-488,722	227,729	-0,096	0,116
-487,708	8,302	0,030	0,017
-486,693	81,344	-0,043	-0,034
-485,678	800,000	0,041	-0,112
-484,664	423,851	-0,039	0,062
-483,649	-200,000	0,022	-0,106
-482,635	77,452	-0,155	-0,121
-481,620	10,039	-0,020	0,011
-480,605	90,289	-0,036	0,030
-479,591	800,000	-0,026	0,054
-478,576	-56,063	0,041	-0,013
-477,562	-200,000	-0,025	-0,144
-476,547	130,620	-0,035	-0,033
-475,532	17,326	-0,055	0,032
-474,518	-97,420	-0,056	-0,011
-473,503	-74,316	-0,125	0,033
-472,489	-131,917	0,112	-0,011
-471,474	105,741	-0,081	-0,070
-470,459	313,286	-0,108	0,150
-469,445	800,000	-0,024	0,058
-468,430	420,245	-0,047	-0,075
-467,416	322,532	0,050	0,070
-466,401	-83,510	-0,036	0,008
-465,386	-200,000	-0,033	0,109
-464,372	-200,000	-0,009	0,094
-463,357	95,542	0,103	0,086
-462,343	-200,000	0,013	0,047
-461,328	-45,917	-0,167	-0,060
-460,313	-100,587	0,041	0,007
-459,299	-200,000	-0,009	0,091
-458,284	-146,746	0,033	-0,002
-457,270	576,129	-0,036	0,065
-456,255	295,463	0,040	-0,054
-455,241	278,344	0,022	-0,029
-454,226	131,033	0,057	-0,054
-453,211	7,083	0,062	-0,034
-452,197	-200,000	-0,015	-0,080
-451,182	-5,210	0,089	0,045
-450,168	-200,000	0,034	0,181
-449,153	800,000	0,048	-0,134
-448,138	-200,000	-0,030	-0,141
-447,124	-25,388	-0,098	-0,042
-446,109	-200,000	0,004	-0,025
-445,095	800,000	0,094	0,194
-444,080	-200,000	0,007	0,178
-443,065	-200,000	-0,031	0,102
-442,051	60,507	0,100	-0,073
-441,036	32,294	-0,057	0,036
-440,022	-162,206	-0,060	0,002
-439,007	-40,205	-0,063	-0,024
-437,992	195,335	0,023	-0,026
-436,978	18,431	0,124	-0,073
-435,963	-200,000	-0,013	0,088
-434,949	42,902	-0,066	0,044
-433,934	800,000	-0,042	-0,094
-432,919	-49,822	-0,164	-0,057
-431,905	-36,643	0,087	0,034
-430,890	84,989	0,012	0,010
-429,876	634,633	-0,010	0,018
-428,861	25,689	-0,044	-0,027
-427,846	183,902	0,031	0,034
-426,832	-8,652	0,062	0,030
-425,817	-121,527	-0,074	0,009
-424,803	-200,000	-0,002	-0,018
-423,788	-142,882	0,125	-0,009
-422,773	800,000	0,029	0,065
-421,759	57,595	-0,078	-0,056
-420,744	170,764	-0,040	0,042
-419,730	608,246	-0,028	-0,051
-418,715	335,981	0,041	-0,059
-417,701	-3,153	-0,048	-0,024
-416,686	-108,290	-0,117	0,018
-415,671	168,851	-0,009	0,009
-414,657	-173,049	0,163	-0,004
-413,642	-122,486	-0,092	-0,011
-412,628	59,792	-0,206	-0,149
-411,613	132,783	0,062	-0,059
-410,598	-200,000	-0,008	-0,073
-409,584	113,636	0,054	-0,048
-408,569	-127,835	0,121	-0,013
-407,555	-82,544	0,017	-0,004
-406,540	334,183	-0,082	-0,117
-405,525	449,190	-0,084	-0,136
-404,511	424,169	-0,078	-0,123
-403,496	120,770	-0,130	-0,118
-402,482	-107,502	0,119	0,019
-401,467	89,451	0,062	0,051
-400,452	-200,000	0,002	0,072
-399,438	-27,117	-0,096	0,041
-398,423	76,991	-0,010	0,008
-397,409	-138,640	-0,101	0,008
-396,394	-4,833	-0,105	0,053
-395,379	-200,000	0,034	0,150
-394,365	-200,000	0,038	0,232
-393,350	-127,950	0,077	0,008
-392,336	-11,173	-0,124	0,060
-391,321	800,000	0,028	-0,079
-390,306	49,686	-0,042	-0,029
-389,292	23,498	-0,083	0,050
-388,277	-75,559	-0,054	0,014
-387,263	382,526	-0,065	0,098
-386,248	-200,000	0,004	0,087
-385,233	-151,827	0,229	0,012
-384,219	439,064	0,029	-0,047
-383,204	746,557	0,022	-0,044
-382,190	-182,701	-0,186	-0,002
-381,175	800,000	-0,070	-0,190
-380,160	397,277	0,081	0,124
-379,146	565,493	-0,015	-0,026
-378,131	800,000	0,021	0,060
-377,117	800,000	-0,033	-0,100
-376,102	-200,000	-0,016	0,093
-375,088	-200,000	0,022	0,096
-374,073	83,856	0,067	0,053
-373,058	-200,000	-0,001	0,012
-372,044	-17,917	0,058	0,026
-371,029	-105,817	-0,160	-0,026
-370,015	-114,442	-0,096	-0,013
-369,000	-200,000	-0,007	0,083
-367,985	-152,327	0,080	0,004
-366,971	-127,448	0,100	-0,010
-365,956	228,255	0,097	-0,116
-364,942	298,280	-0,123	0,166
-363,927	-200,000	-0,002	0,011
-362,912	-160,885	0,140	0,005
-361,898	181,875	-0,030	-0,033
-360,883	220,807	-0,024	-0,029
-359,869	-87,390	-0,115	-0,025
-358,854	-58,321	-0,032	0,010
-357,839	335,986	-0,031	-0,045
-356,825	-200,000	0,011	-0,039
-355,810	34,404	0,077	0,049
-354,796	800,000	0,050	-0,119
-353,781	-200,000	0,034	-0,217
-352,766	282,696	0,061	0,080
-351,752	800,000	0,049	0,103
-350,737	12,598	-0,031	0,018
-349,723	-200,000	0,012	0,052
-348,708	50,612	0,055	0,038
-347,693	-165,361	0,077	-0,002
-346,679	242,799	-0,036	-0,045
-345,664	-200,000	0,004	-0,065
-344,650	-94,886	-0,090	0,018
-343,635	314,733	0,066	-0,091
-342,620	-67,882	-0,037	-0,010
-341,606	252,015	0,067	0,084
-340,591	-200,000	-0,001	-0,080
-339,577	98,749	-0,085	0,071
-338,562	-2,065	0,077	-0,039
-337,548	-54,727	0,080	0,026
-336,533	-36,700	0,177	-0,069
-335,518	38,977	-0,026	-0,017
-334,504	-200,000	0,005	-0,091
-333,489	683,554	-0,029	0,056
-332,475	-200,000	-0,012	-0,079
-331,460	216,439	0,079	-0,092
-330,445	255,783	0,044	0,055
-329,431	-200,000	0,014	-0,179
-328,416	-200,000	-0,042	0,161
-327,402	800,000	-0,004	0,010
-326,387	208,754	-0,091	-0,104
-325,372	145,159	0,068	-0,066
-324,358	800,000	-0,070	0,148
-323,343	-83,560	0,067	0,016
-322,329	-61,285	0,174	0,053
-321,314	800,000	0,024	-0,067
-320,299	-32,002	-0,041	0,017
-319,285	-26,407	0,022	0,009
-318,270	-56,375	-0,078	-0,025
-317,256	147,612	0,037	0,036
-316,241	223,128	0,054	-0,063
-315,226	-200,000	0,007	-0,066
-314,212	-200,000	0,013	-0,152
-313,197	77,785	0,103	0,080
-312,183	75,096	-0,053	0,041
-311,168	142,806	-0,109	-0,106
-310,153	211,777	-0,051	-0,059
-309,139	-200,000	0,005	0,073
-308,124	371,802	-0,055	0,081
-307,110	-14,288	0,161	-0,076
-306,095	211,969	-0,048	0,055
-305,080	-200,000	0,003	0,144
-304,066	56,296	-0,078	0,055
-303,051	-200,000	0,039	-0,146
-302,037	371,639	0,091	-0,136
-301,022	1,210	0,082	0,043
-300,008	-200,000	0,000	0,135
-298,993	-84,584	0,094	0,021
-297,978	-106,253	0,110	0,018
-296,964	-67,516	0,066	-0,019
-295,949	-200,000	0,010	-0,100
-294,935	57,814	0,006	-0,004
-293,920	-133,644	0,097	-0,009
-292,905	800,000	-0,035	0,100
-291,891	-106,344	-0,181	-0,029
-290,876	-200,000	-0,006	0,102
-289,862	800,000	0,015	-0,036
-288,847	36,355	-0,075	-0,048
-287,832	3,193	0,124	0,066
-286,818	-48,212	0,020	0,007
-285,803	307,212	0,020	0,028
-284,789	-7,540	0,070	0,035
-283,774	710,213	-0,015	0,029
-282,759	84,338	0,011	-0,009
-281,745	588,040	-0,027	-0,048
-280,730	-166,746	-0,181	0,005
-279,716	-200,000	0,009	0,050
-278,701	-200,000	-0,017	-0,055
-277,686	-27,432	0,021	0,009
-276,672	732,326	0,038	0,075
-275,657	-200,000	0,005	0,031
-274,643	-200,000	-0,030	-0,098
-273,628	-43,411	-0,073	-0,027
-272,613	-100,791	0,047	-0,008
-271,599	800,000	0,054	0,135
-270,584	-200,000	0,038	0,219
-269,570	-200,000	-0,025	0,099
-268,555	600,676	-0,068	0,125
-267,540	305,731	-0,018	0,024
-266,526	34,653	-0,022	0,014
-265,511	165,409	0,086	-0,089
-264,497	800,000	-0,070	0,142
-263,482	-68,866	-0,103	-0,029
-262,467	62,356	0,110	-0,080
-261,453	33,583	0,102	0,065
-260,438	-200,000	0,003	-0,012
-259,424	199,965	-0,033	-0,037
-258,409	227,824	-0,073	-0,087
-257,395	-20,782	0,121	-0,054
-256,380	800,000	-0,028	0,061
-255,365	54,328	0,114	0,080
-254,351	800,000	0,011	-0,026
-253,336	800,000	-0,051	0,131
-252,322	135,684	-0,061	-0,058
-251,307	76,181	0,080	-0,061
-250,292	230,060	0,059	0,071
-249,278	-9,844	0,174	0,084
-248,263	796,996	0,023	-0,046
-247,249	800,000	0,005	-0,011
-246,234	-200,000	0,003	0,133
-245,219	-134,777	-0,059	0,005
-244,205	-200,000	-0,003	0,022
-243,190	-200,000	-0,009	-0,067
-242,176	-200,000	0,006	0,106
-241,161	169,253	0,051	0,053
-240,146	-200,000	-0,007	-0,036
-239,132	26,845	0,089	-0,054
-238,117	-19,506	-0,120	-0,054
-237,103	-200,000	-0,013	0,048
-236,088	-38,813	0,061	0,023
-235,073	-200,000	-0,003	0,020
-234,059	-155,758	0,199	-0,009
-233,044	123,872	-0,026	-0,023
-232,030	568,571	0,076	-0,134
-231,015	-57,744	-0,090	-0,029
-230,000	-113,316	0,063	-0,009
-228,986	-37,323	0,119	-0,046
-227,971	-200,000	0,009	-0,126
-226,957	-27,701	0,092	-0,039
-225,942	800,000	0,016	0,039
-224,927	173,860	-0,016	0,017
-223,913	-25,400	-0,134	-0,057
-222,898	-55,445	-0,116	-0,038
-221,884	21,152	-0,062	-0,036
-220,869	-72,639	0,127	0,034
-219,855	-4,749	0,114	-0,057
-218,840	33,023	0,058	-0,036
-217,825	179,890	0,006	0,007
-216,811	-112,623	0,096	0,014
-215,796	-81,155	-0,083	0,020
-214,782	56,553	0,016	0,012
-213,767	-135,433	0,059	0,005
-212,752	-200,000	0,010	-0,112
-211,738	47,168	0,062	-0,042
-210,723	373,361	-0,006	0,009
-209,709	-83,339	0,113	0,026
-208,694	-200,000	-0,021	-0,164
-207,679	247,762	0,037	-0,046
-206,665	-124,457	-0,058	0,006
-205,650	12,900	-0,092	0,052
-204,636	-67,262	0,095	0,027
-203,621	-110,263	0,065	0,010
-202,606	-200,000	-0,012	-0,080
-201,592	350,227	0,034	0,050
-200,577	800,000	-0,042	-0,104
-199,563	167,299	0,113	-0,117
-198,548	-200,000	-0,018	-0,082
-197,533	358,722	0,101	0,148
-196,519	-200,000	0,010	0,033
-195,504	-200,000	0,018	-0,080
-194,490	243,932	0,047	-0,057
-193,475	-4,849	-0,074	-0,037
-192,460	20,107	-0,011	0,007
-191,446	279,788	0,017	-0,022
-190,431	504,654	0,050	0,084
-189,417	612,217	-0,027	0,050
-188,402	-200,000	-0,026	0,096
-187,387	181,327	0,061	0,066
-186,373	522,890	-0,090	-0,154
-185,358	800,000	-0,043	0,099
-184,344	-39,861	0,123	0,046
-183,329	800,000	-0,022	0,065
-182,315	-13,665	-0,021	-0,010
-181,300	800,000	-0,025	-0,055
-180,285	59,120	0,034	0,025
-179,271	111,003	0,016	0,014
-178,256	-200,000	-0,001	0,038
-177,242	-87,476	0,028	0,006
-176,227	-140,842	0,177	0,013
-175,212	-141,768	0,080	-0,006
-174,198	-200,000	-0,021	-0,146
-173,183	800,000	0,024	0,072
-172,169	-64,066	-0,107	0,032
-171,154	-150,888	0,105	0,006
-170,139	696,165	0,038	0,073
-169,125	-200,000	0,000	0,009
-168,110	-87,957	-0,086	-0,019
-167,096	14,938	0,080	-0,046
-166,081	152,911	-0,040	-0,039
-165,066	-112,126	-0,204	0,029
-164,052	-200,000	0,001	-0,056
-163,037	-0,963	0,087	-0,044
-162,023	464,374	0,100	0,164
-161,008	-58,936	0,127	0,040
-159,993	800,000	-0,031	-0,088
-158,979	172,362	-0,076	-0,079
-157,964	-3,920	0,083	-0,042
-156,950	-78,509	0,075	0,018
-155,935	-31,193	-0,046	0,019
-154,920	287,932	-0,046	-0,061
-153,906	530,760	0,058	0,100
-152,891	-150,543	-0,090	0,005
-151,877	-83,964	0,129	0,029
-150,862	226,402	-0,047	0,055
-149,847	120,557	0,089	-0,080
-148,833	-200,000	0,004	-0,024
-147,818	-19,495	-0,115	0,052
-146,804	170,008	0,121	0,126
-145,789	433,522	0,040	-0,063
-144,775	-200,000	-0,007	-0,024
-143,760	-200,000	-0,007	-0,187
-142,745	179,575	-0,063	0,067
-141,731	528,494	0,041	-0,070
-140,716	-81,798	0,104	0,024
-139,702	-200,000	0,020	0,094
-138,687	-78,887	0,025	-0,006
-137,672	800,000	0,012	-0,027
-136,658	-125,842	0,060	0,006
-135,643	-117,754	-0,155	-0,020
-134,629	800,000	0,024	-0,057
-133,614	800,000	0,066	-0,139
-132,599	-63,574	0,052	0,015
-131,585	31,438	-0,079	-0,049
-130,570	-54,651	-0,066	0,022
-129,556	202,992	0,050	-0,057
-128,541	340,596	-0,114	-0,162
-127,526	-78,619	0,054	-0,013
-126,512	394,967	-0,027	0,041
-125,497	-131,679	0,161	0,015
-124,483	-46,645	-0,084	0,030
-123,468	-107,826	0,031	-0,005
-122,453	449,473	0,044	-0,071
-121,439	-132,731	-0,027	-0,002
-120,424	800,000	-0,009	0,029
-119,410	-200,000	0,024	-0,087
-118,395	-200,000	-0,001	0,127
