DTS Sentinel unit serial number:	SN410029Multiplexer serial number:	ORYXHardware model number:	OX2-SRSoftware version number:	ORYX F/W v4,00 Oryx Data Collector v3.7.2.0data status	okinstallation	B6 Nyhavnadifferential loss correction	single-endedforward channel	channel 2reverse channel	N/Adate	2023/12/10time	19:55:08forward acquisition time	300,00reverse acquisition time	0,00gamma	499,1914k internal	0,3123k external	0,3123temperature offset calibration	1,0000default loss term (dB/km)	0,3820temperature slope calibration	1,0000multiplexer offset coefficient	1,0000multiplexer slope coefficient	1,0000fibre end	0,00T internal ref (°C)	22,31T ext. ref 1 (°C)	5,97T ext. ref 2 (°C)	6,00length (m)	temperature (°C)	Stokes	anti-Stokes-744,400	800,000	0,002	0,006
-743,385	135,542	-0,075	-0,073
-742,371	0,548	0,110	0,058
-741,356	49,732	-0,161	0,113
-740,342	120,503	0,039	0,036
-739,327	-47,919	-0,205	0,074
-738,312	-57,947	0,041	-0,013
-737,298	-82,448	-0,277	0,067
-736,283	56,455	0,039	0,028
-735,269	34,774	-0,104	0,068
-734,254	381,701	-0,057	0,087
-733,239	-26,610	-0,336	-0,146
-732,225	174,122	0,070	0,075
-731,210	-93,259	-0,143	0,029
-730,196	86,763	-0,036	0,029
-729,181	-106,817	0,092	0,015
-728,167	397,340	0,062	0,096
-727,152	-200,000	-0,004	0,085
-726,137	-200,000	0,016	-0,171
-725,123	62,962	-0,065	0,048
-724,108	13,171	-0,046	0,027
-723,094	32,512	-0,109	-0,070
-722,079	800,000	0,024	-0,073
-721,064	-200,000	0,016	-0,157
-720,050	800,000	0,028	0,088
-719,035	185,539	-0,039	-0,044
-718,021	-200,000	0,007	-0,152
-717,006	-200,000	0,028	-0,108
-715,991	-200,000	-0,030	-0,121
-714,977	-102,900	-0,078	-0,014
-713,962	32,858	0,008	0,005
-712,948	-200,000	0,010	0,124
-711,933	-70,976	-0,109	-0,030
-710,918	-130,517	-0,055	-0,005
-709,904	0,573	-0,084	0,045
-708,889	-56,329	0,069	-0,023
-707,875	234,051	-0,045	-0,055
-706,860	44,036	-0,026	-0,018
-705,845	-113,289	-0,138	-0,020
-704,831	483,334	0,066	0,113
-703,816	-120,920	0,040	-0,005
-702,802	102,175	-0,081	0,071
-701,787	-200,000	0,002	0,072
-700,772	611,483	0,025	-0,046
-699,758	800,000	-0,024	-0,070
-698,743	117,444	0,054	-0,050
-697,729	599,859	0,047	0,087
-696,714	-15,998	-0,146	-0,069
-695,699	360,525	-0,039	0,058
-694,685	-123,463	-0,125	0,015
-693,670	22,746	-0,154	-0,093
-692,656	52,652	-0,064	-0,045
-691,641	-200,000	0,000	-0,042
-690,627	183,359	0,092	0,101
-689,612	168,516	-0,095	0,101
-688,597	374,538	-0,027	-0,042
-687,583	40,866	-0,025	-0,016
-686,568	-40,174	-0,048	0,019
-685,554	-200,000	-0,027	-0,136
-684,539	800,000	0,027	0,063
-683,524	10,254	-0,069	0,039
-682,510	800,000	0,041	0,102
-681,495	-54,033	-0,094	-0,031
-680,481	-200,000	-0,047	-0,185
-679,466	18,799	-0,246	-0,146
-678,451	476,693	0,034	0,057
-677,437	-96,098	0,040	-0,008
-676,422	174,731	-0,037	-0,040
-675,408	-29,964	0,085	0,036
-674,393	-200,000	-0,004	0,026
-673,378	-66,769	-0,034	0,010
-672,364	-48,897	-0,023	0,008
-671,349	257,853	-0,054	0,069
-670,335	800,000	-0,031	0,069
-669,320	800,000	-0,045	-0,128
-668,305	-200,000	0,009	0,057
-667,291	102,445	-0,038	0,033
-666,276	104,753	0,072	-0,063
-665,262	273,364	0,088	-0,116
-664,247	199,813	0,112	-0,128
-663,232	105,548	-0,087	0,077
-662,218	-112,736	-0,056	-0,008
-661,203	-200,000	-0,002	0,073
-660,189	-200,000	-0,015	0,069
-659,174	303,734	-0,027	0,037
-658,159	216,485	-0,041	-0,048
-657,145	-145,991	-0,198	-0,013
-656,130	-152,951	-0,040	0,002
-655,116	800,000	0,042	-0,099
-654,101	-200,000	0,026	0,180
-653,086	-200,000	0,005	-0,092
-652,072	-52,441	-0,091	-0,031
-651,057	-173,175	-0,066	-0,001
-650,043	800,000	-0,005	-0,012
-649,028	665,975	0,020	-0,039
-648,014	547,525	0,063	0,113
-646,999	800,000	-0,057	0,126
-645,984	169,073	0,021	0,022
-644,970	225,361	0,018	-0,021
-643,955	-133,169	-0,129	-0,012
-642,941	-200,000	-0,010	-0,171
-641,926	-200,000	-0,001	0,055
-640,911	458,321	0,115	0,191
-639,897	-30,069	0,139	0,058
-638,882	-102,270	0,080	-0,014
-637,868	370,875	-0,019	0,028
-636,853	591,911	-0,025	-0,046
-635,838	98,801	-0,052	-0,045
-634,824	-200,000	-0,009	-0,229
-633,809	-127,202	0,081	0,009
-632,795	-117,539	0,058	0,008
-631,780	382,127	-0,092	-0,141
-630,765	-3,632	-0,109	-0,056
-629,751	15,324	0,031	-0,018
-628,736	759,635	-0,062	-0,124
-627,722	117,474	0,040	-0,037
-626,707	3,467	0,044	0,023
-625,692	-125,195	-0,080	-0,009
-624,678	-200,000	0,014	-0,161
-623,663	135,504	-0,080	0,078
-622,649	-51,274	-0,093	-0,032
-621,634	613,372	-0,060	-0,113
-620,619	40,740	-0,069	0,046
-619,605	800,000	0,066	-0,145
-618,590	165,281	0,091	0,095
-617,576	800,000	-0,020	0,052
-616,561	-200,000	0,000	-0,053
-615,546	-142,793	-0,084	0,006
-614,532	224,659	-0,074	-0,089
-613,517	-53,579	-0,076	-0,026
-612,503	-101,988	-0,089	0,016
-611,488	391,342	0,049	0,076
-610,474	-200,000	-0,019	0,085
-609,459	-200,000	0,016	-0,055
-608,444	2,823	-0,143	-0,077
-607,430	275,276	0,078	-0,102
-606,415	-200,000	-0,001	-0,027
-605,401	-115,970	-0,037	0,005
-604,386	-200,000	-0,016	-0,069
-603,371	-145,261	0,067	0,004
-602,357	12,436	-0,074	-0,042
-601,342	800,000	-0,026	-0,081
-600,328	214,906	-0,045	0,053
-599,313	-90,382	0,167	-0,036
-598,298	-153,844	0,019	-0,001
-597,284	-42,153	-0,053	0,020
-596,269	-44,594	0,133	-0,049
-595,255	188,990	-0,046	-0,051
-594,240	652,325	0,049	0,094
-593,225	244,732	-0,021	0,026
-592,211	-200,000	-0,005	0,145
-591,196	57,812	-0,096	0,070
-590,182	-40,404	0,070	-0,027
-589,167	-200,000	-0,010	0,057
-588,152	-37,270	-0,164	-0,065
-587,138	182,876	0,020	-0,022
-586,123	-36,285	0,143	-0,057
-585,109	44,605	-0,102	-0,069
-584,094	608,263	-0,043	0,080
-583,079	88,930	0,151	0,125
-582,065	435,621	-0,037	0,060
-581,050	-110,339	-0,081	0,012
-580,036	359,684	0,030	0,044
-579,021	-200,000	0,038	-0,192
-578,006	-74,950	-0,196	-0,052
-576,992	97,483	-0,060	-0,051
-575,977	146,201	0,035	0,034
-574,963	-158,917	0,105	0,004
-573,948	-63,228	0,040	0,012
-572,934	424,388	-0,031	0,049
-571,919	-58,803	-0,082	0,026
-570,904	53,628	-0,105	-0,075
-569,890	800,000	0,027	-0,072
-568,875	-95,031	0,024	-0,005
-567,861	202,070	0,088	0,101
-566,846	608,130	0,077	0,144
-565,831	800,000	-0,013	-0,029
-564,817	-28,351	-0,118	-0,050
-563,802	458,311	-0,069	-0,114
-562,788	800,000	0,092	-0,218
-561,773	800,000	-0,010	-0,027
-560,758	-200,000	-0,004	0,101
-559,744	171,141	-0,088	-0,093
-558,729	-181,460	0,093	0,001
-557,715	-22,047	-0,037	-0,016
-556,700	8,708	-0,087	-0,048
-555,685	-84,391	0,103	-0,024
-554,671	327,613	0,061	0,086
-553,656	345,055	-0,055	-0,079
-552,642	62,217	-0,057	0,042
-551,627	178,586	0,098	0,106
-550,612	800,000	-0,040	-0,097
-549,598	-200,000	0,032	-0,124
-548,583	182,107	-0,030	-0,033
-547,569	-57,556	0,063	-0,020
-546,554	72,919	0,004	0,003
-545,539	-5,929	-0,071	0,036
-544,525	-200,000	-0,015	-0,065
-543,510	-200,000	-0,005	-0,033
-542,496	800,000	-0,031	-0,077
-541,481	-200,000	0,026	-0,203
-540,466	-200,000	-0,010	-0,068
-539,452	-125,615	0,036	-0,004
-538,437	85,501	-0,075	0,061
-537,423	-200,000	0,002	0,082
-536,408	44,835	-0,091	0,062
-535,393	83,633	-0,107	-0,087
-534,379	180,600	-0,028	-0,030
-533,364	-200,000	-0,010	0,119
-532,350	258,180	0,087	0,111
-531,335	-200,000	0,037	-0,203
-530,321	-85,528	0,012	0,003
-529,306	43,480	-0,101	-0,068
-528,291	-200,000	-0,007	0,043
-527,277	-200,000	-0,004	0,043
-526,262	-86,681	0,115	0,026
-525,248	-175,418	0,111	0,002
-524,233	84,276	-0,099	-0,080
-523,218	58,388	-0,062	-0,045
-522,204	-200,000	-0,013	-0,065
-521,189	257,809	0,052	-0,066
-520,175	-200,000	-0,000	0,105
-519,160	49,822	0,125	0,087
-518,145	-200,000	-0,008	0,140
-517,131	377,836	-0,101	0,154
-516,116	-200,000	0,006	0,021
-515,102	800,000	0,062	0,136
-514,087	96,547	0,060	0,051
-513,072	-10,073	-0,087	-0,043
-512,058	6,368	-0,047	0,026
-511,043	-200,000	-0,012	-0,088
-510,029	-200,000	-0,002	0,061
-509,014	-27,637	0,201	0,086
-507,999	-200,000	-0,001	0,111
-506,985	26,609	-0,105	0,065
-505,970	-64,615	-0,087	0,026
-504,956	-200,000	0,010	-0,088
-503,941	-112,467	-0,175	-0,025
-502,926	5,589	0,052	0,028
-501,912	0,777	-0,184	-0,097
-500,897	234,367	0,017	-0,020
-499,883	-200,000	0,001	-0,162
-498,868	-39,875	-0,055	-0,021
-497,853	-200,000	-0,005	-0,064
-496,839	-200,000	0,019	0,084
-495,824	-29,917	-0,095	0,040
-494,810	37,591	-0,056	-0,036
-493,795	341,094	0,068	0,099
-492,781	800,000	-0,038	0,088
-491,766	-71,028	-0,097	-0,027
-490,751	-200,000	-0,001	0,013
-489,737	-200,000	0,037	-0,126
-488,722	72,515	0,026	0,020
-487,708	0,505	-0,033	0,017
-486,693	209,859	0,092	0,107
-485,678	-141,185	-0,031	0,002
-484,664	800,000	-0,016	0,038
-483,649	24,222	0,127	-0,077
-482,635	104,787	0,036	-0,031
-481,620	800,000	-0,024	0,056
-480,605	313,846	0,064	0,089
-479,591	71,411	-0,033	0,025
-478,576	246,655	-0,028	0,035
-477,562	349,742	0,086	-0,126
-476,547	-150,337	-0,185	-0,010
-475,532	-66,897	-0,018	0,005
-474,518	-200,000	0,000	0,005
-473,503	91,599	0,184	0,152
-472,489	-20,190	0,016	-0,007
-471,474	756,631	-0,052	-0,104
-470,459	800,000	-0,077	-0,159
-469,445	-131,493	-0,050	-0,005
-468,430	22,404	0,046	-0,028
-467,416	94,341	0,089	0,075
-466,401	-62,628	0,062	0,019
-465,386	-37,634	0,092	0,036
-464,372	99,087	-0,051	0,043
-463,357	-200,000	0,018	-0,061
-462,343	307,389	-0,037	-0,051
-461,328	74,762	-0,093	-0,072
-460,313	31,302	0,137	-0,087
-459,299	-122,619	0,136	-0,016
-458,284	141,077	-0,130	0,127
-457,270	182,668	0,003	0,004
-456,255	-30,563	0,092	-0,038
-455,241	37,068	-0,046	0,030
-454,226	-43,649	0,028	-0,010
-453,211	229,815	0,042	-0,050
-452,197	-65,231	0,061	-0,018
-451,182	101,292	0,065	0,056
-450,168	-200,000	-0,013	-0,055
-449,153	66,564	0,069	-0,051
-448,138	-200,000	-0,011	0,053
-447,124	800,000	-0,054	-0,117
-446,109	17,907	0,047	0,028
-445,095	800,000	-0,016	-0,047
-444,080	59,325	0,050	-0,036
-443,065	434,611	0,035	0,057
-442,051	-9,809	-0,117	-0,057
-441,036	-82,567	0,087	0,021
-440,022	800,000	0,016	0,048
-439,007	-200,000	0,002	-0,016
-437,992	800,000	0,041	-0,084
-436,978	-200,000	-0,007	0,082
-435,963	-141,947	0,105	0,008
-434,949	-200,000	0,019	-0,080
-433,934	212,443	0,074	0,086
-432,919	800,000	-0,060	-0,139
-431,905	199,318	-0,078	0,088
-430,890	-200,000	0,033	0,117
-429,876	-200,000	-0,012	-0,093
-428,861	-66,838	0,099	-0,028
-427,846	-54,212	0,051	0,017
-426,832	14,319	0,112	-0,064
-425,817	183,437	-0,066	-0,072
-424,803	-39,425	-0,128	-0,049
-423,788	451,923	0,024	0,039
-422,773	81,850	0,084	0,067
-421,759	220,003	-0,049	0,058
-420,744	24,317	-0,078	0,047
-419,730	-200,000	-0,006	0,082
-418,715	-99,525	0,100	0,018
-417,701	26,313	0,043	-0,026
-416,686	35,548	0,219	-0,142
-415,671	118,113	0,035	-0,032
-414,657	800,000	-0,061	0,129
-413,642	-200,000	0,001	-0,037
-412,628	114,156	-0,024	-0,022
-411,613	-200,000	-0,044	-0,145
-410,598	628,301	-0,026	-0,049
-409,584	800,000	0,018	-0,053
-408,569	40,945	0,150	0,100
-407,555	800,000	-0,042	0,097
-406,540	79,654	-0,038	-0,030
-405,525	-200,000	-0,009	0,093
-404,511	-43,152	-0,084	-0,031
-403,496	800,000	0,030	0,083
-402,482	-146,750	-0,009	0,001
-401,467	391,485	0,080	-0,122
-400,452	-72,148	0,132	0,036
-399,438	800,000	-0,065	0,156
-398,423	-58,938	-0,146	-0,046
-397,409	83,955	0,089	0,071
-396,394	-183,527	-0,141	0,002
-395,379	-110,114	0,080	0,012
-394,365	-200,000	0,002	-0,161
-393,350	-200,000	0,005	0,042
-392,336	-200,000	-0,015	-0,063
-391,321	34,775	-0,039	0,025
-390,306	-52,998	0,049	0,016
-389,292	-97,116	-0,157	-0,030
-388,277	-53,184	-0,108	0,036
-387,263	-200,000	-0,024	-0,108
-386,248	637,248	0,028	0,052
-385,233	17,783	-0,028	-0,016
-384,219	-200,000	0,000	0,021
-383,204	340,980	0,052	0,074
-382,190	182,847	-0,074	-0,081
-381,175	-155,133	0,099	0,005
-380,160	800,000	0,033	0,086
-379,146	-125,695	0,059	-0,006
-378,131	-200,000	-0,028	0,124
-377,117	87,408	0,086	0,070
-376,102	192,460	-0,019	-0,021
-375,088	594,717	-0,017	-0,032
-374,073	219,841	-0,057	0,067
-373,058	-200,000	0,016	0,085
-372,044	121,279	0,096	0,088
-371,029	-123,542	0,145	-0,017
-370,015	-82,055	-0,187	0,044
-369,000	-99,609	0,079	0,015
-367,985	130,402	-0,062	-0,059
-366,971	-200,000	0,006	-0,125
-365,956	-200,000	-0,028	-0,129
-364,942	79,833	0,026	-0,021
-363,927	-35,315	0,100	0,040
-362,912	27,999	0,037	-0,023
-361,898	432,131	0,027	0,043
-360,883	-200,000	-0,011	-0,063
-359,869	-88,065	-0,164	0,036
-358,854	-200,000	0,038	0,220
-357,839	-200,000	-0,003	-0,036
-356,825	-134,374	0,041	-0,004
-355,810	273,861	0,065	0,085
-354,796	-50,418	-0,035	-0,012
-353,781	368,838	-0,021	-0,031
-352,766	131,321	-0,016	0,015
-351,752	-200,000	0,007	0,134
-350,737	-200,000	0,025	0,093
-349,723	-200,000	-0,001	0,016
-348,708	47,509	0,008	0,006
-347,693	-200,000	-0,000	0,040
-346,679	-46,918	-0,020	0,007
-345,664	79,694	-0,058	-0,046
-344,650	800,000	-0,030	0,090
-343,635	-200,000	0,005	0,081
-342,620	96,529	0,086	-0,072
-341,606	800,000	-0,026	0,079
-340,591	-200,000	-0,010	0,060
-339,577	-46,225	-0,078	-0,028
-338,562	-200,000	0,019	0,115
-337,548	-101,640	0,178	0,031
-336,533	461,283	0,047	0,077
-335,518	133,978	0,075	0,071
-334,504	800,000	-0,036	-0,083
-333,489	800,000	0,030	-0,088
-332,475	-200,000	0,005	-0,073
-331,460	71,209	0,071	-0,054
-330,445	-200,000	0,015	0,086
-329,431	259,311	0,058	0,074
-328,416	800,000	-0,027	0,074
-327,402	79,326	0,071	0,056
-326,387	-200,000	-0,049	0,173
-325,372	-131,766	-0,037	0,003
-324,358	800,000	-0,033	-0,080
-323,343	117,386	-0,057	0,051
-322,329	-50,823	-0,072	-0,025
-321,314	346,204	0,093	0,135
-320,299	105,065	-0,033	0,029
-319,285	-12,088	-0,147	-0,070
-318,270	-47,494	0,125	0,044
-317,256	72,536	-0,048	-0,037
-316,241	185,029	-0,087	-0,095
-315,226	443,076	0,069	0,112
-314,212	633,665	-0,038	-0,071
-313,197	800,000	-0,042	-0,087
-312,183	800,000	-0,042	-0,121
-311,168	800,000	-0,014	0,044
-310,153	398,551	-0,073	-0,112
-309,139	800,000	-0,051	0,114
-308,124	-200,000	0,034	0,154
-307,110	-70,756	0,124	-0,034
-306,095	214,991	-0,098	-0,114
-305,080	299,916	0,104	0,140
-304,066	718,533	-0,018	0,036
-303,051	99,802	-0,069	0,058
-302,037	-7,221	-0,017	-0,008
-301,022	9,918	0,065	-0,036
-300,008	-52,787	0,132	-0,044
-298,993	-129,387	0,042	0,004
-297,978	69,437	0,072	0,054
-296,964	32,035	-0,071	-0,045
-295,949	558,300	-0,068	-0,121
-294,935	454,321	0,019	-0,031
-293,920	800,000	0,021	0,046
-292,905	-25,674	-0,124	-0,054
-291,891	-200,000	-0,015	-0,068
-290,876	-200,000	-0,022	-0,082
-289,862	-43,770	-0,117	0,043
-288,847	800,000	-0,042	-0,112
-287,832	253,009	-0,024	0,030
-286,818	-85,698	0,111	0,025
-285,803	83,986	0,042	0,034
-284,789	122,972	0,034	0,031
-283,774	4,428	0,121	-0,065
-282,759	800,000	0,039	-0,092
-281,745	800,000	-0,043	0,118
-280,730	41,719	-0,039	0,026
-279,716	300,115	-0,034	-0,045
-278,701	323,702	0,029	-0,041
-277,686	356,488	-0,057	0,083
-276,672	25,920	-0,103	0,063
-275,657	800,000	0,031	0,064
-274,643	425,153	-0,037	0,058
-273,628	-92,625	-0,059	-0,012
-272,613	-145,492	-0,097	0,006
-271,599	19,635	0,130	-0,076
-270,584	-200,000	0,000	0,056
-269,570	-79,316	0,076	-0,019
-268,555	298,156	0,040	0,053
-267,540	-95,876	-0,115	-0,022
-266,526	-60,352	0,034	-0,011
-265,511	-78,486	0,077	0,019
-264,497	169,976	-0,037	-0,039
-263,482	800,000	-0,018	0,055
-262,467	-57,703	0,088	-0,028
-261,453	800,000	0,010	0,031
-260,438	-79,707	0,084	-0,021
-259,424	-9,320	0,027	0,013
-258,409	88,184	-0,127	0,103
-257,395	-123,540	0,038	0,004
-256,380	-96,900	0,114	0,022
-255,365	107,446	0,046	-0,040
-254,351	74,338	-0,068	0,052
-253,336	452,493	-0,034	-0,055
-252,322	-200,000	0,005	-0,170
-251,307	-35,614	0,169	-0,067
-250,292	-84,769	-0,073	-0,017
-249,278	-5,641	0,176	0,088
-248,263	-19,872	0,153	0,069
-247,249	-200,000	0,041	0,143
-246,234	-31,377	0,020	0,008
-245,219	-146,372	0,093	0,006
-244,205	262,808	-0,078	-0,099
-243,190	79,484	-0,075	0,059
-242,176	-200,000	-0,003	-0,104
-241,161	800,000	0,070	0,156
-240,146	713,775	0,090	0,175
-239,132	326,186	-0,044	0,061
-238,117	-51,868	-0,166	-0,056
-237,103	312,729	-0,034	-0,047
-236,088	-59,823	0,072	-0,022
-235,073	-139,244	0,115	0,009
-234,059	41,118	0,040	0,026
-233,044	800,000	0,047	0,118
-232,030	-200,000	-0,004	-0,073
-231,015	-191,209	0,099	-0,001
-230,000	800,000	-0,034	-0,088
-228,986	119,792	-0,052	-0,047
-227,971	-200,000	0,006	0,027
-226,957	-200,000	0,018	0,115
-225,942	-200,000	-0,006	0,079
-224,927	81,365	-0,106	-0,084
-223,913	164,711	0,016	0,017
-222,898	-32,718	-0,013	-0,005
-221,884	-139,780	-0,081	0,006
-220,869	161,917	0,042	0,043
-219,855	64,212	-0,052	0,038
-218,840	105,365	-0,029	0,025
-217,825	22,199	-0,141	-0,084
-216,811	-200,000	0,013	0,056
-215,796	-54,061	0,044	-0,015
-214,782	-100,687	-0,069	-0,012
-213,767	-200,000	0,034	0,166
-212,752	-63,568	0,070	0,021
-211,738	-200,000	-0,021	0,104
-210,723	-166,798	0,060	0,002
-209,709	-109,920	-0,112	0,017
-208,694	394,604	-0,016	-0,024
-207,679	94,900	-0,008	0,007
-206,665	327,368	-0,054	-0,076
-205,650	-55,907	0,171	0,055
-204,636	-169,550	0,072	0,002
-203,621	-96,381	-0,063	-0,012
-202,606	708,052	-0,034	0,065
-201,592	305,674	-0,080	-0,109
-200,577	-200,000	-0,007	-0,039
-199,563	-29,167	-0,078	0,032
-198,548	226,000	0,066	-0,078
-197,533	490,663	0,043	0,072
-196,519	-104,161	-0,084	0,014
-195,504	75,486	0,032	0,025
-194,490	-53,059	-0,043	-0,014
-193,475	-75,380	0,096	0,025
-192,460	5,263	-0,093	0,050
-191,446	436,335	0,048	0,077
-190,431	-200,000	0,043	-0,178
-189,417	-113,433	0,051	0,007
-188,402	-200,000	0,002	-0,013
-187,387	-79,960	0,051	0,012
-186,373	-185,946	0,038	-0,000
-185,358	-200,000	0,001	-0,100
-184,344	557,953	-0,007	-0,013
-183,329	-200,000	-0,000	-0,037
-182,315	108,296	0,025	0,022
-181,300	-200,000	-0,018	-0,128
-180,285	-200,000	0,017	-0,113
-179,271	-7,987	-0,029	0,014
-178,256	-102,559	0,006	-0,001
-177,242	-18,136	-0,029	0,013
-176,227	-53,917	0,084	0,028
-175,212	61,360	-0,042	0,030
-174,198	67,220	-0,148	0,110
-173,183	-200,000	0,015	-0,090
-172,169	152,965	-0,096	-0,096
-171,154	-127,960	0,084	-0,009
-170,139	228,218	-0,036	-0,043
-169,125	-53,468	0,106	-0,035
-168,110	316,375	-0,105	-0,144
-167,096	-200,000	-0,005	-0,121
-166,081	-83,441	-0,146	-0,034
-165,066	-200,000	-0,011	-0,052
-164,052	370,427	-0,088	-0,131
-163,037	-104,807	0,067	-0,011
-162,023	-124,622	-0,071	-0,008
-161,008	485,463	0,053	0,089
-159,993	-74,760	0,075	0,019
-158,979	-64,400	0,051	-0,015
-157,964	306,644	-0,069	0,094
-156,950	63,311	0,050	0,037
-155,935	-83,535	-0,091	-0,021
-154,920	-18,658	0,115	-0,052
-153,906	260,020	-0,128	0,161
-152,891	800,000	-0,031	0,080
-151,877	143,690	-0,109	-0,106
-150,862	-65,138	-0,108	0,031
-149,847	-200,000	-0,017	-0,058
-148,833	254,641	-0,084	-0,105
-147,818	55,206	0,073	-0,051
-146,804	-122,331	0,049	-0,006
-145,789	800,000	0,034	0,107
-144,775	-50,419	-0,135	-0,046
-143,760	62,004	-0,038	-0,027
-142,745	73,800	-0,012	0,009
-141,731	-200,000	0,011	-0,192
-140,716	59,999	-0,060	-0,043
-139,702	-200,000	-0,003	0,068
-138,687	800,000	-0,042	0,136
-137,672	370,685	0,087	0,129
-136,658	175,315	-0,116	-0,123
-135,643	-14,028	-0,128	-0,060
-134,629	340,915	-0,037	0,053
-133,614	4,142	0,075	0,040
-132,599	800,000	-0,054	0,129
-131,585	357,975	0,030	0,043
-130,570	-84,878	-0,058	0,013
-129,556	797,592	-0,053	-0,107
-128,541	177,896	-0,120	0,128
-127,526	-88,053	-0,079	0,017
-126,512	9,449	0,068	-0,038
-125,497	207,164	0,038	-0,044
-124,483	725,293	-0,026	-0,050
-123,468	800,000	-0,008	-0,018
-122,453	93,622	0,066	-0,055
-121,439	-73,104	0,050	-0,013
-120,424	78,063	0,085	-0,066
-119,410	-175,140	-0,037	-0,001
-118,395	-200,000	0,001	0,042
