DTS Sentinel unit serial number:	SN410029Multiplexer serial number:	ORYXHardware model number:	OX2-SRSoftware version number:	ORYX F/W v4,00 Oryx Data Collector v3.7.2.0data status	okinstallation	B6 Nyhavnadifferential loss correction	single-endedforward channel	channel 2reverse channel	N/Adate	2023/12/10time	01:55:08forward acquisition time	300,00reverse acquisition time	0,00gamma	499,1914k internal	0,3126k external	0,3126temperature offset calibration	1,0000default loss term (dB/km)	0,3820temperature slope calibration	1,0000multiplexer offset coefficient	1,0000multiplexer slope coefficient	1,0000fibre end	0,00T internal ref (°C)	21,93T ext. ref 1 (°C)	5,69T ext. ref 2 (°C)	5,69length (m)	temperature (°C)	Stokes	anti-Stokes-744,400	318,949	-0,019	0,027
-743,385	-28,942	-0,148	0,063
-742,371	-65,342	0,090	-0,027
-741,356	89,768	-0,268	0,223
-740,342	7,027	-0,113	0,062
-739,327	29,488	-0,149	0,094
-738,312	-200,000	0,006	-0,156
-737,298	-20,990	-0,140	0,064
-736,283	347,395	0,044	0,065
-735,269	-131,372	-0,381	-0,037
-734,254	-193,323	-0,036	0,000
-733,239	-52,920	-0,358	-0,122
-732,225	-159,359	0,206	-0,008
-731,210	651,067	-0,076	0,145
-730,196	-200,000	-0,001	0,013
-729,181	88,899	-0,030	-0,025
-728,167	-48,784	-0,020	-0,007
-727,152	-86,575	-0,052	0,012
-726,137	12,042	-0,144	-0,082
-725,123	-58,215	-0,190	-0,061
-724,108	-101,261	-0,083	-0,015
-723,094	-200,000	0,010	-0,049
-722,079	-200,000	-0,032	-0,112
-721,064	-28,054	-0,082	-0,035
-720,050	186,069	0,054	-0,060
-719,035	6,613	0,068	0,037
-718,021	-72,803	-0,046	0,012
-717,006	540,085	-0,072	-0,127
-715,991	-23,418	-0,109	0,049
-714,977	-98,404	-0,079	0,015
-713,962	89,892	0,079	-0,066
-712,948	-152,136	-0,081	-0,004
-711,933	675,457	-0,056	-0,108
-710,918	-96,412	0,026	-0,005
-709,904	-27,859	-0,076	0,033
-708,889	29,356	-0,027	-0,017
-707,875	-86,826	0,075	-0,017
-706,860	-200,000	-0,008	0,068
-705,845	-128,897	0,087	0,009
-704,831	199,531	0,127	0,145
-703,816	63,214	-0,079	-0,059
-702,802	51,590	0,089	-0,063
-701,787	71,831	0,073	-0,056
-700,772	-200,000	-0,026	-0,151
-699,758	236,296	0,032	0,040
-698,743	108,537	0,124	0,110
-697,729	126,042	0,037	0,035
-696,714	-200,000	-0,000	0,020
-695,699	-200,000	-0,014	-0,082
-694,685	800,000	-0,038	0,098
-693,670	109,929	0,039	-0,035
-692,656	-55,279	0,050	0,017
-691,641	-19,075	-0,118	-0,055
-690,627	-29,548	-0,058	-0,024
-689,612	800,000	0,029	-0,070
-688,597	268,018	0,042	0,054
-687,583	-48,335	-0,162	0,058
-686,568	-6,832	0,072	0,036
-685,554	453,204	-0,035	-0,057
-684,539	-200,000	-0,062	0,203
-683,524	306,532	-0,084	0,117
-682,510	-156,389	0,143	-0,007
-681,495	-200,000	0,028	-0,106
-680,481	-18,852	-0,103	0,048
-679,466	464,948	0,028	-0,047
-678,451	259,149	-0,087	0,111
-677,437	178,322	0,138	0,150
-676,422	-139,283	0,142	-0,011
-675,408	800,000	0,086	0,233
-674,393	-200,000	0,023	0,113
-673,378	-144,225	-0,082	0,006
-672,364	-34,940	-0,046	0,019
-671,349	800,000	0,016	-0,051
-670,335	-128,971	-0,183	-0,019
-669,320	256,495	0,051	0,066
-668,305	-149,764	0,065	-0,004
-667,291	-200,000	0,003	-0,030
-666,276	145,484	0,098	-0,098
-665,262	85,087	-0,057	0,046
-664,247	37,836	0,075	0,049
-663,232	-60,847	0,019	0,006
-662,218	800,000	0,040	0,096
-661,203	800,000	-0,064	0,141
-660,189	285,182	-0,101	0,135
-659,174	-62,026	-0,083	0,025
-658,159	-155,589	-0,086	0,004
-657,145	-7,644	0,057	-0,028
-656,130	235,681	-0,027	0,033
-655,116	-25,405	-0,053	0,023
-654,101	-200,000	0,006	-0,087
-653,086	259,435	0,077	0,099
-652,072	-61,747	-0,079	0,025
-651,057	322,104	-0,045	-0,063
-650,043	-200,000	0,018	-0,213
-649,028	-200,000	-0,031	-0,134
-648,014	800,000	0,038	0,085
-646,999	718,313	-0,079	0,157
-645,984	540,156	-0,074	0,131
-644,970	-59,579	-0,104	0,033
-643,955	27,062	0,081	0,051
-642,941	176,530	-0,038	-0,040
-641,926	-108,304	0,072	0,011
-640,911	800,000	-0,068	0,149
-639,897	25,978	0,005	-0,003
-638,882	-69,915	0,107	0,030
-637,868	691,178	-0,068	-0,132
-636,853	446,161	-0,111	-0,181
-635,838	-20,661	-0,029	0,013
-634,824	137,916	0,089	-0,086
-633,809	0,519	-0,090	-0,047
-632,795	64,259	0,074	-0,055
-631,780	296,923	-0,133	0,181
-630,765	-200,000	0,023	0,114
-629,751	146,257	-0,112	-0,111
-628,736	-200,000	0,035	-0,161
-627,722	-83,603	0,059	0,014
-626,707	-194,036	0,089	-0,001
-625,692	338,205	-0,055	0,079
-624,678	-144,608	0,130	-0,009
-623,663	-200,000	0,003	-0,064
-622,649	-85,601	0,165	-0,038
-621,634	800,000	-0,019	-0,047
-620,619	-200,000	-0,007	-0,061
-619,605	49,602	-0,101	-0,070
-618,590	800,000	0,022	0,064
-617,576	63,057	0,056	-0,042
-616,561	305,266	0,068	-0,094
-615,546	-200,000	-0,051	0,169
-614,532	241,721	-0,036	-0,044
-613,517	355,532	-0,030	-0,044
-612,503	-143,922	0,115	0,008
-611,488	-200,000	-0,003	0,035
-610,474	-67,674	-0,116	-0,033
-609,459	-200,000	-0,004	-0,068
-608,444	800,000	0,091	-0,198
-607,430	-200,000	0,001	-0,038
-606,415	8,582	-0,133	-0,074
-605,401	530,690	0,044	-0,077
-604,386	-17,280	0,089	-0,041
-603,371	-157,157	0,140	0,006
-602,357	-200,000	0,003	-0,098
-601,342	800,000	-0,069	-0,189
-600,328	335,060	-0,044	-0,063
-599,313	44,498	0,016	-0,011
-598,298	-90,088	-0,076	-0,016
-597,284	-72,441	0,055	-0,015
-596,269	-36,146	0,093	-0,037
-595,255	-200,000	-0,010	0,049
-594,240	291,955	-0,036	-0,049
-593,225	234,395	0,010	-0,012
-592,211	-200,000	-0,006	-0,025
-591,196	-91,293	-0,157	-0,033
-590,182	-200,000	0,011	0,067
-589,167	82,816	0,049	0,040
-588,152	-42,485	0,090	0,034
-587,138	-134,328	0,124	-0,011
-586,123	-200,000	-0,017	0,137
-585,109	72,334	-0,068	0,052
-584,094	-59,938	0,142	0,045
-583,079	-125,463	0,117	0,013
-582,065	-87,567	-0,053	0,012
-581,050	72,894	0,072	0,056
-580,036	127,780	0,065	0,061
-579,021	164,409	0,035	0,037
-578,006	166,108	0,065	-0,068
-576,992	305,283	0,067	0,092
-575,977	-200,000	-0,014	-0,083
-574,963	-100,082	-0,120	0,022
-573,948	-26,810	0,054	-0,023
-572,934	-200,000	-0,036	0,136
-571,919	35,374	0,064	-0,042
-570,904	800,000	0,019	-0,051
-569,890	-200,000	-0,016	-0,093
-568,875	800,000	-0,021	0,066
-567,861	-133,210	-0,045	0,004
-566,846	-200,000	0,035	0,171
-565,831	-200,000	0,048	0,168
-564,817	-74,297	0,092	-0,024
-563,802	-51,374	0,082	-0,028
-562,788	-200,000	-0,004	-0,042
-561,773	289,751	-0,091	0,123
-560,758	163,590	0,017	-0,018
-559,744	-200,000	0,015	-0,074
-558,729	-98,850	-0,114	0,021
-557,715	688,846	-0,043	-0,084
-556,700	-200,000	-0,044	-0,149
-555,685	429,814	0,079	-0,127
-554,671	164,559	-0,019	0,019
-553,656	11,663	0,157	0,089
-552,642	-45,214	-0,093	0,034
-551,627	-200,000	0,009	-0,082
-550,612	186,452	0,020	-0,022
-549,598	90,542	-0,101	-0,083
-548,583	-200,000	0,040	-0,135
-547,569	337,609	0,016	-0,023
-546,554	-6,770	-0,049	0,025
-545,539	800,000	-0,065	0,163
-544,525	-200,000	0,034	0,137
-543,510	-9,378	0,097	-0,048
-542,496	204,401	-0,092	-0,106
-541,481	-200,000	-0,048	-0,198
-540,466	298,513	0,033	-0,044
-539,452	222,834	0,023	-0,027
-538,437	-200,000	-0,013	-0,081
-537,423	-16,341	0,056	0,026
-536,408	-68,446	-0,073	-0,021
-535,393	228,227	-0,052	-0,063
-534,379	492,767	-0,044	-0,074
-533,364	-141,045	-0,072	-0,005
-532,350	-65,079	0,051	0,015
-531,335	81,841	0,008	0,007
-530,321	-123,728	0,059	-0,007
-529,306	-112,301	-0,037	0,005
-528,291	24,472	-0,019	-0,012
-527,277	35,715	-0,145	-0,094
-526,262	-152,209	-0,030	0,002
-525,248	644,164	-0,036	-0,068
-524,233	46,593	-0,071	-0,049
-523,218	-116,276	-0,048	0,006
-522,204	168,447	-0,053	-0,055
-521,189	48,223	-0,051	0,035
-520,175	-200,000	-0,001	-0,068
-519,160	243,659	-0,044	0,055
-518,145	-200,000	0,010	0,154
-517,131	-69,513	0,187	-0,052
-516,116	50,514	-0,097	0,068
-515,102	-93,923	0,051	-0,010
-514,087	316,293	-0,003	0,004
-513,072	-113,331	0,068	-0,010
-512,058	-200,000	-0,025	0,111
-511,043	52,228	-0,142	-0,100
-510,029	-29,083	0,152	0,064
-509,014	-14,343	-0,061	0,029
-507,999	57,663	0,040	0,029
-506,985	106,072	-0,021	0,018
-505,970	66,197	-0,106	-0,079
-504,956	-113,220	-0,122	0,018
-503,941	222,369	-0,062	-0,074
-502,926	13,698	0,145	-0,083
-501,912	23,404	0,091	-0,055
-500,897	26,531	0,101	0,062
-499,883	-200,000	-0,012	0,066
-498,868	20,549	-0,129	0,077
-497,853	-95,525	-0,119	0,023
-496,839	211,663	-0,051	-0,059
-495,824	545,139	-0,040	-0,071
-494,810	800,000	-0,015	0,035
-493,795	-93,778	0,119	-0,024
-492,781	346,652	0,022	0,032
-491,766	800,000	-0,075	-0,154
-490,751	800,000	0,026	-0,058
-489,737	-47,350	0,076	-0,027
-488,722	-102,876	-0,035	0,006
-487,708	-82,338	-0,120	0,028
-486,693	92,346	-0,030	-0,025
-485,678	133,989	0,055	0,052
-484,664	298,821	-0,081	-0,110
-483,649	287,366	-0,034	0,045
-482,635	800,000	0,039	-0,096
-481,620	-200,000	-0,001	-0,056
-480,605	800,000	0,048	0,124
-479,591	102,401	-0,103	0,089
-478,576	800,000	-0,039	0,109
-477,562	-200,000	-0,003	0,035
-476,547	-0,746	-0,100	-0,052
-475,532	85,952	0,168	-0,136
-474,518	800,000	0,024	0,077
-473,503	-200,000	-0,046	0,194
-472,489	166,788	0,057	0,060
-471,474	-31,296	-0,225	-0,093
-470,459	800,000	-0,036	0,074
-469,445	-63,061	-0,081	0,024
-468,430	-168,559	-0,153	-0,004
-467,416	83,330	0,050	0,040
-466,401	667,042	0,022	-0,042
-465,386	22,033	0,014	-0,008
-464,372	-55,147	0,028	-0,009
-463,357	-200,000	0,013	0,064
-462,343	-28,342	-0,081	-0,034
-461,328	-200,000	0,008	0,033
-460,313	179,203	0,042	0,045
-459,299	-73,097	-0,098	-0,026
-458,284	-103,870	0,070	-0,012
-457,270	-200,000	-0,002	0,052
-456,255	-106,026	-0,075	-0,012
-455,241	-57,947	-0,045	-0,014
-454,226	730,303	-0,022	-0,044
-453,211	543,535	-0,046	-0,082
-452,197	58,206	-0,036	0,026
-451,182	193,565	-0,041	0,045
-450,168	303,027	-0,006	0,008
-449,153	-48,981	0,074	-0,026
-448,138	-149,613	0,098	0,006
-447,124	217,205	0,025	-0,029
-446,109	383,101	0,005	-0,007
-445,095	-200,000	-0,001	-0,008
-444,080	-42,212	0,205	0,077
-443,065	-200,000	0,031	-0,106
-442,051	15,460	-0,140	-0,080
-441,036	490,392	-0,086	-0,145
-440,022	-15,068	-0,149	-0,070
-439,007	-127,142	-0,155	-0,016
-437,992	54,706	0,094	0,066
-436,978	800,000	0,101	0,224
-435,963	800,000	-0,048	-0,102
-434,949	423,855	-0,055	-0,087
-433,934	-132,643	-0,157	-0,015
-432,919	-176,922	0,062	0,001
-431,905	103,479	-0,011	-0,010
-430,890	167,233	0,013	0,013
-429,876	-127,862	-0,063	0,007
-428,861	-200,000	-0,010	0,110
-427,846	-113,780	-0,125	0,018
-426,832	105,255	-0,063	-0,054
-425,817	60,622	-0,065	-0,048
-424,803	383,754	0,087	-0,133
-423,788	-165,520	-0,083	0,003
-422,773	-200,000	0,012	0,065
-421,759	800,000	-0,025	0,059
-420,744	-200,000	0,013	-0,060
-419,730	800,000	0,015	0,047
-418,715	-200,000	0,013	-0,056
-417,701	-200,000	0,021	0,136
-416,686	-5,354	0,129	-0,065
-415,671	-71,083	-0,082	-0,022
-414,657	608,256	0,029	0,054
-413,642	171,282	-0,119	0,126
-412,628	390,245	-0,047	0,073
-411,613	-85,274	-0,084	0,019
-410,598	-200,000	0,011	-0,074
-409,584	592,630	-0,088	0,161
-408,569	274,035	0,033	0,043
-407,555	18,275	-0,020	0,011
-406,540	800,000	-0,061	0,167
-405,525	203,794	0,037	0,042
-404,511	-81,373	0,217	-0,052
-403,496	210,602	-0,050	-0,058
-402,482	-62,840	-0,158	0,048
-401,467	-166,281	0,064	-0,002
-400,452	-151,970	0,130	0,007
-399,438	-200,000	-0,008	0,103
-398,423	215,193	-0,030	-0,035
-397,409	-75,448	0,088	-0,023
-396,394	31,009	0,056	0,035
-395,379	134,630	0,063	-0,060
-394,365	726,194	-0,053	0,104
-393,350	800,000	0,037	-0,084
-392,336	800,000	0,056	0,130
-391,321	92,162	-0,040	0,033
-390,306	-51,491	-0,133	-0,045
-389,292	-55,192	0,065	-0,021
-388,277	-200,000	0,011	0,049
-387,263	2,408	0,081	-0,043
-386,248	25,570	0,083	0,051
-385,233	-34,122	-0,074	0,030
-384,219	596,391	0,035	0,065
-383,204	-108,292	-0,050	-0,008
-382,190	-200,000	0,042	-0,168
-381,175	8,163	-0,139	0,076
-380,160	11,933	0,012	0,007
-379,146	800,000	0,065	0,141
-378,131	-72,625	0,134	-0,036
-377,117	502,636	0,012	0,021
-376,102	507,341	-0,021	-0,036
-375,088	187,081	0,052	0,057
-374,073	-3,176	0,070	-0,035
-373,058	-200,000	0,009	0,040
-372,044	-34,961	0,141	0,056
-371,029	-200,000	0,002	-0,072
-370,015	-18,778	0,102	0,046
-369,000	-6,455	-0,059	-0,029
-367,985	-200,000	-0,009	-0,096
-366,971	-146,764	0,069	0,004
-365,956	-13,523	-0,067	-0,032
-364,942	223,639	0,083	0,099
-363,927	-141,089	0,109	0,008
-362,912	746,431	-0,026	0,052
-361,898	-114,137	-0,108	-0,015
-360,883	-120,026	0,038	0,005
-359,869	-1,277	0,098	-0,051
-358,854	50,887	-0,059	0,041
-357,839	-164,506	-0,108	-0,004
-356,825	296,746	-0,013	-0,017
-355,810	-200,000	-0,014	0,059
-354,796	454,976	-0,004	0,007
-353,781	297,635	0,067	-0,090
-352,766	-200,000	0,001	-0,045
-351,752	57,455	0,080	0,057
-350,737	-43,844	-0,116	0,043
-349,723	41,694	0,146	-0,097
-348,708	800,000	0,058	-0,131
-347,693	102,030	-0,074	0,063
-346,679	153,470	-0,013	-0,013
-345,664	800,000	0,074	-0,179
-344,650	71,297	-0,128	-0,097
-343,635	-5,327	0,097	0,049
-342,620	800,000	0,053	0,158
-341,606	81,773	-0,034	0,027
-340,591	800,000	0,070	-0,185
-339,577	800,000	-0,058	-0,151
-338,562	-14,457	0,019	0,009
-337,548	-200,000	-0,011	-0,050
-336,533	-94,369	-0,036	0,007
-335,518	234,807	-0,043	0,052
-334,504	515,255	0,032	0,055
-333,489	-35,119	0,094	-0,037
-332,475	208,981	0,055	-0,063
-331,460	-48,228	-0,079	0,028
-330,445	25,429	0,101	-0,061
-329,431	-200,000	0,012	0,041
-328,416	75,121	0,084	-0,065
-327,402	-133,526	0,092	0,008
-326,387	21,910	-0,070	0,042
-325,372	111,184	0,046	-0,040
-324,358	84,626	0,065	0,052
-323,343	-29,815	-0,071	-0,030
-322,329	-119,677	0,027	0,003
-321,314	350,052	-0,020	0,029
-320,299	-136,487	-0,107	0,009
-319,285	-3,853	-0,059	-0,030
-318,270	-91,706	0,006	-0,001
-317,256	259,087	0,067	-0,085
-316,241	800,000	-0,028	-0,085
-315,226	98,986	0,121	0,103
-314,212	126,798	0,066	0,061
-313,197	-61,125	-0,135	0,042
-312,183	159,674	-0,057	0,058
-311,168	129,007	-0,073	0,069
-310,153	129,957	-0,030	-0,028
-309,139	-200,000	0,002	-0,027
-308,124	185,772	0,040	-0,044
-307,110	46,874	-0,004	0,003
-306,095	-200,000	0,012	-0,097
-305,080	74,569	0,037	0,028
-304,066	-200,000	-0,050	-0,162
-303,051	30,188	0,038	0,024
-302,037	103,098	-0,102	-0,087
-301,022	-97,277	-0,105	-0,020
-300,008	157,135	0,078	0,079
-298,993	-61,890	0,093	0,028
-297,978	-200,000	0,009	-0,038
-296,964	-189,271	0,069	0,001
-295,949	-122,798	-0,111	-0,013
-294,935	31,071	-0,076	-0,047
-293,920	-200,000	0,013	0,076
-292,905	531,244	0,040	0,070
-291,891	-99,363	0,187	0,034
-290,876	-200,000	0,005	0,075
-289,862	800,000	-0,047	-0,098
-288,847	-77,077	-0,127	-0,032
-287,832	18,261	-0,122	0,071
-286,818	-71,588	0,120	-0,033
-285,803	341,762	0,042	-0,061
-284,789	1,435	-0,119	0,062
-283,774	-200,000	0,017	-0,078
-282,759	3,458	-0,091	0,048
-281,745	108,698	-0,034	-0,029
-280,730	760,863	0,024	-0,048
-279,716	-110,907	-0,094	-0,014
-278,701	-47,622	0,036	-0,013
-277,686	692,859	-0,080	0,153
-276,672	-200,000	-0,004	-0,043
-275,657	547,438	0,046	-0,080
-274,643	-187,618	0,076	-0,001
-273,628	-64,479	0,068	-0,020
-272,613	74,204	0,029	-0,022
-271,599	-200,000	-0,012	0,154
-270,584	222,594	0,081	0,096
-269,570	33,547	-0,153	0,097
-268,555	396,095	-0,052	0,080
-267,540	-200,000	-0,002	-0,013
-266,526	138,564	-0,028	0,027
-265,511	-85,308	-0,121	0,027
-264,497	800,000	0,032	0,081
-263,482	87,827	0,114	0,092
-262,467	-99,798	0,114	0,021
-261,453	-200,000	-0,002	0,050
-260,438	4,247	-0,119	-0,064
-259,424	312,480	-0,080	0,111
-258,409	-200,000	0,005	-0,047
-257,395	250,186	0,039	-0,049
-256,380	-107,559	0,032	0,005
-255,365	4,408	0,181	0,097
-254,351	-113,868	0,086	0,012
-253,336	150,778	0,063	0,062
-252,322	-200,000	-0,047	-0,157
-251,307	24,151	-0,008	0,005
-250,292	-2,946	0,043	0,022
-249,278	-12,513	0,087	-0,041
-248,263	-200,000	-0,016	0,057
-247,249	-94,148	0,149	-0,029
-246,234	-111,403	-0,136	-0,020
-245,219	-200,000	-0,022	-0,089
-244,205	-200,000	0,016	0,061
-243,190	34,076	-0,186	-0,118
-242,176	-4,879	0,136	-0,068
-241,161	466,996	0,071	0,117
-240,146	115,784	-0,030	0,027
-239,132	-39,011	-0,082	-0,032
-238,117	-150,824	-0,045	-0,002
-237,103	598,257	-0,020	-0,036
-236,088	179,909	0,039	-0,041
-235,073	1,763	0,032	0,017
-234,059	118,580	-0,059	0,053
-233,044	-94,448	-0,063	-0,013
-232,030	-200,000	-0,012	-0,083
-231,015	63,648	0,128	-0,094
-230,000	423,927	-0,044	-0,069
-228,986	-43,802	-0,053	-0,019
-227,971	800,000	-0,032	-0,065
-226,957	-84,117	0,162	0,037
-225,942	-106,461	-0,021	-0,003
-224,927	1,080	0,037	-0,019
-223,913	-200,000	0,030	-0,120
-222,898	-200,000	0,010	0,050
-221,884	-17,165	-0,035	0,016
-220,869	42,256	0,089	-0,059
-219,855	-200,000	-0,008	-0,045
-218,840	203,332	-0,041	0,046
-217,825	75,078	0,071	-0,055
-216,811	23,069	0,012	0,007
-215,796	67,730	-0,059	-0,044
-214,782	-69,105	0,038	0,011
-213,767	-6,723	0,033	0,016
-212,752	-143,102	-0,051	-0,004
-211,738	-121,865	0,094	0,011
-210,723	-200,000	0,018	0,171
-209,709	-200,000	0,026	-0,117
-208,694	778,799	-0,009	-0,018
-207,679	278,129	-0,066	0,086
-206,665	255,182	-0,015	0,018
-205,650	197,023	0,071	0,080
-204,636	-200,000	0,033	0,123
-203,621	363,904	-0,002	0,003
-202,606	232,879	0,075	-0,090
-201,592	800,000	0,020	0,062
-200,577	99,038	0,061	0,051
-199,563	-60,797	0,160	0,049
-198,548	54,092	0,085	0,059
-197,533	-86,475	0,034	0,008
-196,519	-32,999	0,065	0,026
-195,504	-2,921	-0,064	0,032
-194,490	4,026	-0,067	0,035
-193,475	-108,854	0,059	-0,009
-192,460	800,000	0,021	0,047
-191,446	366,478	-0,006	0,009
-190,431	741,327	0,031	0,061
-189,417	14,895	0,036	-0,021
-188,402	-200,000	-0,008	0,028
-187,387	800,000	0,038	-0,097
-186,373	-200,000	0,023	-0,117
-185,358	337,075	0,076	-0,108
-184,344	-200,000	0,020	0,120
-183,329	-19,392	-0,128	0,058
-182,315	344,812	0,103	0,147
-181,300	195,326	0,033	-0,037
-180,285	29,675	-0,142	-0,088
-179,271	-99,524	-0,067	0,012
-178,256	800,000	0,035	0,088
-177,242	-87,854	0,100	0,022
-176,227	71,145	0,049	0,037
-175,212	566,022	-0,014	0,024
-174,198	248,306	-0,080	0,099
-173,183	-17,535	-0,074	0,034
-172,169	-76,034	-0,098	0,025
-171,154	-39,165	-0,143	-0,054
-170,139	-14,628	-0,027	0,013
-169,125	-200,000	-0,006	0,022
-168,110	800,000	0,008	-0,016
-167,096	-200,000	0,001	0,031
-166,081	-200,000	0,005	0,124
-165,066	800,000	0,018	0,048
-164,052	800,000	-0,045	-0,105
-163,037	-95,993	0,033	0,006
-162,023	-183,040	0,069	0,001
-161,008	800,000	-0,052	0,106
-159,993	-200,000	-0,005	-0,026
-158,979	58,486	0,024	-0,017
-157,964	61,028	0,055	0,040
-156,950	-78,131	-0,120	-0,030
-155,935	-200,000	0,007	-0,033
-154,920	-200,000	-0,005	0,101
-153,906	405,111	-0,039	0,060
-152,891	-200,000	0,028	0,104
-151,877	394,549	-0,034	0,051
-150,862	190,248	-0,064	-0,070
-149,847	101,056	-0,041	-0,035
-148,833	-200,000	0,003	0,011
-147,818	-88,542	-0,058	0,012
-146,804	-200,000	0,008	-0,073
-145,789	800,000	0,031	-0,094
-144,775	62,840	-0,056	0,040
-143,760	150,342	0,024	0,024
-142,745	-53,262	-0,040	0,013
-141,731	-30,911	0,057	0,023
-140,716	114,278	0,097	0,086
-139,702	-200,000	-0,021	0,090
-138,687	-200,000	0,029	0,116
-137,672	456,438	-0,011	0,018
-136,658	34,728	-0,080	-0,051
-135,643	-135,863	0,163	0,014
-134,629	369,599	-0,051	0,076
-133,614	-60,051	0,026	-0,008
-132,599	-200,000	-0,011	0,106
-131,585	800,000	0,063	0,143
-130,570	-97,496	0,017	-0,003
-129,556	22,427	-0,035	0,021
-128,541	-107,931	-0,124	-0,019
-127,526	182,105	-0,067	0,072
-126,512	800,000	0,039	-0,083
-125,497	204,503	0,051	0,057
-124,483	-110,063	0,097	-0,015
-123,468	463,330	-0,046	0,075
-122,453	63,554	-0,073	0,053
-121,439	15,385	0,079	-0,045
-120,424	486,267	0,055	0,092
-119,410	574,024	0,081	0,145
-118,395	177,083	-0,063	0,067
-117,380	-146,756	-0,061	-0,004
