DTS Sentinel unit serial number:	SN410029Multiplexer serial number:	ORYXHardware model number:	OX2-SRSoftware version number:	ORYX F/W v4,00 Oryx Data Collector v3.7.2.0data status	okinstallation	B6 Nyhavnadifferential loss correction	single-endedforward channel	channel 2reverse channel	N/Adate	2023/12/07time	18:55:08forward acquisition time	300,00reverse acquisition time	0,00gamma	499,1914k internal	0,3163k external	0,3163temperature offset calibration	1,0000default loss term (dB/km)	0,3820temperature slope calibration	1,0000multiplexer offset coefficient	1,0000multiplexer slope coefficient	1,0000fibre end	0,00T internal ref (°C)	14,15T ext. ref 1 (°C)	-2,87T ext. ref 2 (°C)	-2,88length (m)	temperature (°C)	Stokes	anti-Stokes-744,400	800,000	0,017	0,040
-743,385	29,074	-0,187	0,117
-742,371	29,425	0,093	0,058
-741,356	-114,641	-0,356	-0,050
-740,342	-42,139	0,269	0,101
-739,327	-126,229	-0,324	0,035
-738,312	204,773	0,112	-0,128
-737,298	-72,592	-0,327	-0,088
-736,283	265,397	-0,014	-0,018
-735,269	-27,970	-0,169	0,071
-734,254	46,741	0,079	-0,054
-733,239	-16,587	-0,516	-0,239
-732,225	-117,758	0,299	0,039
-731,210	-81,244	-0,105	0,025
-730,196	220,592	-0,058	0,068
-729,181	446,232	-0,020	0,032
-728,167	84,893	-0,054	0,044
-727,152	-200,000	-0,036	0,141
-726,137	-110,501	-0,132	0,020
-725,123	-200,000	-0,004	0,063
-724,108	661,867	-0,056	0,107
-723,094	-141,999	-0,102	0,007
-722,079	-33,083	0,016	-0,007
-721,064	800,000	-0,055	0,128
-720,050	-25,911	0,145	0,062
-719,035	-130,526	0,073	-0,007
-718,021	60,830	-0,109	0,079
-717,006	-89,826	-0,116	-0,025
-715,991	-24,565	0,111	0,048
-714,977	547,855	0,022	-0,040
-713,962	-200,000	-0,038	-0,135
-712,948	321,246	0,066	-0,092
-711,933	800,000	0,048	-0,131
-710,918	32,787	-0,080	0,051
-709,904	9,681	-0,177	-0,098
-708,889	-200,000	0,013	-0,049
-707,875	-200,000	0,036	0,152
-706,860	-55,006	-0,134	-0,044
-705,845	230,628	-0,038	-0,046
-704,831	-77,172	0,034	-0,009
-703,816	-32,011	-0,129	-0,053
-702,802	295,384	-0,055	-0,074
-701,787	800,000	0,049	-0,154
-700,772	800,000	-0,007	-0,020
-699,758	-185,853	0,072	-0,001
-698,743	-200,000	0,018	0,143
-697,729	59,468	0,053	0,038
-696,714	354,038	-0,055	-0,081
-695,699	-116,869	-0,113	0,015
-694,685	750,504	-0,020	-0,041
-693,670	110,292	-0,065	-0,058
-692,656	351,981	-0,008	0,011
-691,641	-99,126	-0,054	0,010
-690,627	-128,973	0,120	-0,012
-689,612	-130,052	-0,075	0,007
-688,597	102,938	-0,128	-0,110
-687,583	-200,000	0,004	-0,115
-686,568	-19,107	-0,094	0,043
-685,554	-36,419	0,039	0,016
-684,539	25,726	-0,036	0,022
-683,524	-200,000	-0,000	0,040
-682,510	-200,000	-0,010	-0,094
-681,495	775,650	0,006	0,011
-680,481	164,842	-0,071	-0,073
-679,466	-200,000	-0,026	-0,150
-678,451	115,875	-0,080	0,071
-677,437	-65,697	-0,155	-0,045
-676,422	-200,000	-0,020	-0,088
-675,408	800,000	0,020	-0,058
-674,393	775,635	0,038	-0,077
-673,378	-101,117	-0,124	0,022
-672,364	404,833	0,007	0,010
-671,349	-111,482	-0,070	-0,010
-670,335	146,146	0,082	0,081
-669,320	-200,000	-0,001	0,078
-668,305	-89,965	-0,113	-0,024
-667,291	800,000	0,023	0,064
-666,276	800,000	-0,063	-0,145
-665,262	579,657	0,018	-0,032
-664,247	-30,572	0,055	0,023
-663,232	325,872	0,024	-0,033
-662,218	-200,000	0,000	0,010
-661,203	-127,141	0,063	-0,007
-660,189	-200,000	-0,022	-0,140
-659,174	-200,000	-0,016	-0,087
-658,159	-60,110	-0,035	-0,011
-657,145	800,000	0,021	-0,054
-656,130	300,787	-0,008	0,011
-655,116	-200,000	0,003	0,071
-654,101	574,860	0,057	0,103
-653,086	231,803	-0,027	-0,032
-652,072	312,071	0,055	0,076
-651,057	32,641	-0,060	-0,038
-650,043	-200,000	0,011	-0,043
-649,028	-88,953	-0,121	-0,026
-648,014	-200,000	0,007	-0,062
-646,999	-16,373	-0,075	0,035
-645,984	-200,000	0,018	0,158
-644,970	800,000	-0,054	0,135
-643,955	-200,000	0,005	-0,068
-642,941	-200,000	-0,010	0,133
-641,926	-83,391	0,065	-0,015
-640,911	-200,000	-0,002	-0,010
-639,897	-200,000	-0,002	-0,093
-638,882	419,559	0,049	0,077
-637,868	-200,000	-0,015	-0,128
-636,853	-142,754	-0,094	-0,007
-635,838	42,381	-0,126	-0,084
-634,824	427,487	-0,034	0,055
-633,809	-95,904	0,123	0,024
-632,795	800,000	-0,054	0,138
-631,780	414,554	-0,038	-0,060
-630,765	89,333	-0,078	-0,064
-629,751	-200,000	-0,024	0,081
-628,736	800,000	-0,049	-0,135
-627,722	605,481	0,103	-0,188
-626,707	-66,357	-0,122	-0,035
-625,692	-118,377	0,111	0,014
-624,678	86,723	-0,090	-0,072
-623,663	255,275	-0,044	-0,055
-622,649	800,000	0,036	-0,093
-621,634	79,733	-0,103	-0,081
-620,619	-200,000	0,006	-0,084
-619,605	-200,000	-0,030	-0,113
-618,590	258,832	0,111	-0,140
-617,576	80,705	-0,087	0,069
-616,561	-200,000	0,002	-0,061
-615,546	46,724	-0,080	-0,055
-614,532	108,348	-0,009	0,008
-613,517	800,000	-0,063	-0,186
-612,503	-200,000	-0,003	0,050
-611,488	24,624	-0,088	0,053
-610,474	-200,000	-0,006	0,082
-609,459	-50,591	-0,036	0,013
-608,444	-104,024	0,057	-0,010
-607,430	-121,277	-0,174	-0,021
-606,415	215,617	0,075	-0,087
-605,401	-96,429	-0,014	-0,003
-604,386	-56,116	-0,030	0,010
-603,371	124,844	0,172	0,159
-602,357	73,928	0,027	0,021
-601,342	45,387	-0,146	-0,098
-600,328	183,882	-0,162	-0,175
-599,313	800,000	-0,053	-0,141
-598,298	-200,000	-0,005	-0,123
-597,284	-130,258	0,229	0,022
-596,269	660,724	0,023	0,044
-595,255	800,000	-0,014	-0,033
-594,240	255,507	-0,108	0,136
-593,225	-79,088	0,028	0,007
-592,211	266,431	0,028	0,036
-591,196	97,146	-0,084	-0,070
-590,182	220,361	0,104	0,122
-589,167	225,829	0,101	-0,120
-588,152	-200,000	0,007	-0,148
-587,138	-200,000	0,006	0,028
-586,123	-4,061	-0,174	-0,088
-585,109	-72,589	0,043	0,011
-584,094	-106,105	0,037	0,006
-583,079	226,350	-0,131	0,155
-582,065	-200,000	0,012	0,078
-581,050	377,843	-0,088	-0,132
-580,036	-25,536	-0,052	0,022
-579,021	-123,373	-0,087	-0,010
-578,006	-200,000	0,008	-0,076
-576,992	-94,945	0,080	0,016
-575,977	-69,934	0,096	-0,026
-574,963	39,025	0,095	0,062
-573,948	-27,803	0,070	-0,030
-572,934	-200,000	0,021	-0,121
-571,919	-67,973	-0,039	-0,011
-570,904	-30,530	-0,106	-0,044
-569,890	-101,356	-0,044	-0,008
-568,875	-39,583	-0,173	0,066
-567,861	-19,938	0,115	0,052
-566,846	-200,000	-0,003	0,067
-565,831	800,000	0,029	-0,080
-564,817	-200,000	0,008	0,033
-563,802	284,762	-0,017	0,023
-562,788	-200,000	-0,036	-0,138
-561,773	-137,573	0,095	-0,008
-560,758	746,230	-0,027	0,054
-559,744	-37,268	0,030	-0,012
-558,729	-200,000	0,014	0,080
-557,715	-24,316	-0,085	-0,037
-556,700	800,000	-0,002	-0,007
-555,685	-95,356	0,114	0,022
-554,671	-60,065	-0,056	-0,017
-553,656	73,642	0,036	-0,028
-552,642	88,270	-0,064	-0,052
-551,627	354,959	-0,068	-0,098
-550,612	672,529	0,060	0,114
-549,598	318,170	-0,069	-0,096
-548,583	6,198	-0,063	0,034
-547,569	-157,735	0,111	0,005
-546,554	-56,430	-0,024	-0,008
-545,539	129,882	0,095	0,089
-544,525	-4,300	-0,096	-0,048
-543,510	11,030	-0,080	0,044
-542,496	324,532	0,025	-0,035
-541,481	-38,528	-0,206	0,079
-540,466	15,896	0,032	0,018
-539,452	258,886	-0,051	0,064
-538,437	800,000	0,019	0,040
-537,423	118,652	-0,057	0,051
-536,408	107,848	0,112	-0,097
-535,393	-200,000	-0,020	-0,091
-534,379	800,000	0,016	0,034
-533,364	800,000	0,018	0,038
-532,350	503,815	0,072	0,122
-531,335	116,333	0,065	-0,058
-530,321	-200,000	-0,021	0,088
-529,306	-200,000	0,009	-0,115
-528,291	-147,816	0,049	-0,003
-527,277	800,000	0,028	-0,081
-526,262	800,000	-0,018	0,056
-525,248	-165,323	-0,051	0,002
-524,233	88,318	0,042	0,034
-523,218	800,000	0,027	0,085
-522,204	-200,000	0,010	-0,148
-521,189	-200,000	0,027	0,098
-520,175	222,631	-0,086	-0,101
-519,160	-16,961	0,138	0,063
-518,145	217,560	0,067	0,078
-517,131	-146,336	-0,026	-0,002
-516,116	-153,942	0,112	0,005
-515,102	-55,963	-0,061	0,020
-514,087	312,654	0,077	0,106
-513,072	106,801	0,032	-0,027
-512,058	412,292	-0,086	0,134
-511,043	334,631	0,064	-0,091
-510,029	-7,880	0,058	0,029
-509,014	249,766	0,050	-0,062
-507,999	134,189	-0,082	-0,078
-506,985	800,000	-0,037	-0,102
-505,970	-46,882	-0,223	-0,079
-504,956	-184,285	-0,130	-0,002
-503,941	104,764	0,095	0,081
-502,926	-200,000	0,018	0,069
-501,912	-97,650	-0,134	-0,025
-500,897	648,698	0,076	-0,142
-499,883	-200,000	-0,162	0,000
-498,868	439,181	0,022	-0,035
-497,853	-156,944	-0,101	-0,004
-496,839	-177,801	0,070	-0,001
-495,824	-61,267	0,114	0,035
-494,810	548,986	-0,036	0,063
-493,795	-200,000	-0,002	-0,007
-492,781	-77,025	-0,101	0,025
-491,766	537,648	-0,087	-0,152
-490,751	-36,107	-0,047	-0,019
-489,737	310,234	0,030	-0,041
-488,722	596,400	0,079	0,144
-487,708	-200,000	0,019	0,131
-486,693	350,061	-0,047	0,068
-485,678	-200,000	-0,006	-0,111
-484,664	-83,329	-0,082	-0,019
-483,649	147,324	-0,051	-0,050
-482,635	-200,000	0,022	0,084
-481,620	-101,323	-0,107	0,019
-480,605	800,000	0,053	0,163
-479,591	283,573	-0,039	-0,051
-478,576	-200,000	0,015	0,084
-477,562	-68,993	0,087	-0,024
-476,547	-200,000	-0,012	-0,113
-475,532	-59,034	-0,050	0,016
-474,518	474,927	0,055	-0,090
-473,503	296,382	-0,064	-0,086
-472,489	50,635	0,110	-0,075
-471,474	-155,354	0,019	-0,001
-470,459	-200,000	0,008	0,069
-469,445	349,105	-0,050	-0,072
-468,430	-200,000	0,018	0,071
-467,416	800,000	0,044	0,132
-466,401	-127,401	0,101	0,011
-465,386	99,730	-0,068	-0,057
-464,372	-200,000	-0,015	0,064
-463,357	461,198	-0,044	-0,071
-462,343	-47,069	-0,124	-0,044
-461,328	17,432	0,111	-0,064
-460,313	173,285	0,093	-0,098
-459,299	10,434	0,064	-0,035
-458,284	-99,310	0,112	-0,020
-457,270	635,912	0,024	-0,045
-456,255	-88,169	-0,150	0,032
-455,241	193,434	0,112	-0,123
-454,226	-54,424	-0,146	-0,048
-453,211	73,629	0,074	-0,057
-452,197	505,155	-0,050	0,084
-451,182	550,529	0,035	-0,062
-450,168	-200,000	0,005	0,070
-449,153	-200,000	0,003	0,067
-448,138	-200,000	-0,023	0,085
-447,124	553,469	-0,013	0,022
-446,109	-188,339	0,071	0,001
-445,095	-91,079	0,191	-0,040
-444,080	43,550	-0,071	0,047
-443,065	-200,000	0,011	-0,119
-442,051	-200,000	0,002	-0,056
-441,036	89,176	-0,071	-0,058
-440,022	40,280	-0,099	-0,065
-439,007	58,919	-0,076	0,054
-437,992	113,462	0,117	-0,104
-436,978	165,222	0,080	-0,083
-435,963	-200,000	0,002	0,027
-434,949	-200,000	-0,015	-0,098
-433,934	-200,000	-0,022	-0,243
-432,919	-133,456	0,073	-0,007
-431,905	195,643	0,094	-0,104
-430,890	113,410	0,001	-0,001
-429,876	-40,024	0,057	-0,022
-428,861	559,137	0,067	0,118
-427,846	505,031	-0,041	-0,069
-426,832	444,898	-0,056	-0,090
-425,817	-13,427	0,127	0,060
-424,803	77,665	-0,090	0,070
-423,788	661,756	0,072	0,136
-422,773	211,504	0,023	0,026
-421,759	-200,000	-0,017	0,081
-420,744	-7,135	0,031	-0,015
-419,730	-167,109	0,074	0,002
-418,715	-200,000	-0,001	-0,077
-417,701	-200,000	-0,001	-0,005
-416,686	254,053	-0,115	-0,143
-415,671	-98,221	0,064	-0,012
-414,657	701,733	-0,050	0,096
-413,642	35,056	0,079	-0,050
-412,628	91,885	-0,080	-0,065
-411,613	-91,724	-0,086	0,018
-410,598	-12,074	0,079	-0,037
-409,584	58,932	0,083	-0,060
-408,569	108,695	0,103	0,089
-407,555	-78,164	0,077	0,019
-406,540	-200,000	-0,005	0,124
-405,525	-80,007	-0,113	-0,027
-404,511	-200,000	-0,012	0,117
-403,496	59,690	0,057	-0,041
-402,482	-200,000	-0,023	-0,110
-401,467	800,000	0,032	-0,083
-400,452	-121,696	0,148	0,018
-399,438	479,915	0,023	0,038
-398,423	-21,552	-0,135	-0,059
-397,409	-60,587	0,100	-0,031
-396,394	-200,000	-0,023	-0,083
-395,379	584,146	-0,050	0,089
-394,365	-200,000	0,021	-0,073
-393,350	-133,883	0,102	-0,009
-392,336	-46,130	-0,151	0,054
-391,321	243,979	-0,067	-0,082
-390,306	76,677	-0,108	-0,083
-389,292	402,506	0,004	-0,007
-388,277	536,909	-0,085	-0,147
-387,263	-200,000	-0,009	-0,039
-386,248	-6,489	-0,046	0,022
-385,233	35,093	0,012	0,007
-384,219	25,679	-0,091	0,055
-383,204	-47,210	0,088	0,031
-382,190	-16,111	-0,104	0,048
-381,175	800,000	0,036	-0,109
-380,160	525,372	0,042	-0,071
-379,146	364,842	-0,033	0,048
-378,131	-150,324	0,108	-0,006
-377,117	-81,046	-0,140	0,033
-376,102	-0,280	-0,059	-0,030
-375,088	119,223	0,017	-0,016
-374,073	-130,226	0,140	-0,014
-373,058	-164,978	-0,109	-0,003
-372,044	-200,000	-0,017	0,161
-371,029	-200,000	-0,014	0,142
-370,015	75,556	0,020	0,015
-369,000	21,598	0,079	-0,046
-367,985	758,878	-0,011	-0,021
-366,971	800,000	0,021	-0,056
-365,956	-142,277	0,018	-0,001
-364,942	579,461	0,061	0,109
-363,927	117,832	0,032	0,028
-362,912	338,438	0,092	-0,130
-361,898	-163,038	0,150	0,005
-360,883	791,520	-0,045	-0,091
-359,869	-128,639	0,128	0,013
-358,854	-28,101	-0,114	0,047
-357,839	-48,723	0,197	-0,068
-356,825	168,523	0,088	0,090
-355,810	-81,219	-0,052	0,012
-354,796	-126,587	0,081	-0,009
-353,781	-147,138	-0,142	0,009
-352,766	233,180	-0,014	-0,017
-351,752	65,521	0,107	0,078
-350,737	77,027	0,053	0,041
-349,723	-200,000	-0,022	0,123
-348,708	511,768	0,049	-0,084
-347,693	114,912	-0,040	0,035
-346,679	566,794	-0,028	-0,049
-345,664	-200,000	0,007	0,078
-344,650	800,000	0,050	-0,114
-343,635	131,989	-0,076	0,071
-342,620	-106,149	0,028	-0,005
-341,606	-170,966	-0,053	0,001
-340,591	800,000	0,028	0,060
-339,577	-110,974	0,046	0,007
-338,562	-200,000	0,003	0,083
-337,548	515,568	0,086	0,146
-336,533	387,212	0,032	0,048
-335,518	800,000	0,030	0,093
-334,504	-104,464	0,212	-0,035
-333,489	800,000	0,007	-0,019
-332,475	-200,000	0,025	-0,183
-331,460	-200,000	0,012	-0,043
-330,445	800,000	0,026	-0,058
-329,431	87,434	-0,054	-0,043
-328,416	800,000	-0,017	0,049
-327,402	18,530	-0,076	-0,044
-326,387	33,670	-0,003	-0,002
-325,372	33,382	-0,036	0,023
-324,358	158,392	-0,050	0,050
-323,343	498,891	-0,049	0,082
-322,329	-10,415	0,045	-0,022
-321,314	86,503	0,039	0,031
-320,299	310,457	-0,054	0,073
-319,285	-172,192	0,114	-0,003
-318,270	-106,494	0,064	0,010
-317,256	-200,000	-0,161	0,000
-316,241	-64,208	-0,073	-0,022
-315,226	-200,000	0,002	-0,013
-314,212	32,826	-0,091	0,057
-313,197	421,736	-0,051	0,079
-312,183	4,987	-0,026	-0,014
-311,168	-14,453	0,007	-0,003
-310,153	47,859	-0,155	-0,105
-309,139	310,736	0,015	-0,020
-308,124	800,000	-0,029	0,080
-307,110	552,997	-0,020	0,035
-306,095	800,000	0,031	0,097
-305,080	147,471	-0,063	-0,062
-304,066	800,000	0,025	0,058
-303,051	800,000	0,025	-0,060
-302,037	-200,000	-0,037	-0,168
-301,022	-200,000	0,003	-0,023
-300,008	800,000	0,028	-0,077
-298,993	800,000	0,028	0,081
-297,978	577,847	-0,074	0,131
-296,964	-124,615	-0,089	-0,010
-295,949	-128,206	-0,123	0,013
-294,935	32,909	0,132	0,082
-293,920	-200,000	-0,026	-0,212
-292,905	150,834	0,073	-0,072
-291,891	-200,000	-0,026	0,106
-290,876	4,482	0,115	-0,061
-289,862	800,000	-0,072	-0,230
-288,847	-20,454	0,070	-0,031
-287,832	-135,472	-0,092	-0,008
-286,818	13,130	0,034	0,019
-285,803	-200,000	0,005	-0,058
-284,789	13,478	0,065	0,036
-283,774	-200,000	-0,004	0,094
-282,759	-72,137	0,045	0,012
-281,745	-59,822	-0,035	-0,011
-280,730	-84,860	-0,099	0,022
-279,716	-24,928	-0,026	-0,011
-278,701	-200,000	0,025	0,127
-277,686	199,179	-0,056	-0,062
-276,672	-200,000	0,005	0,116
-275,657	800,000	0,025	0,059
-274,643	66,821	0,112	-0,082
-273,628	148,404	0,044	0,043
-272,613	729,761	-0,048	0,092
-271,599	337,688	-0,067	0,094
-270,584	-37,114	0,038	0,015
-269,570	249,577	0,065	0,080
-268,555	83,243	0,074	0,058
-267,540	181,290	0,033	-0,035
-266,526	800,000	-0,020	-0,053
-265,511	116,954	-0,055	-0,049
-264,497	-200,000	-0,010	0,156
-263,482	-96,684	0,129	0,024
-262,467	-22,843	-0,133	0,058
-261,453	-44,619	-0,165	-0,059
-260,438	-16,068	0,038	0,018
-259,424	-45,046	-0,096	0,034
-258,409	-200,000	0,017	-0,097
-257,395	-200,000	0,031	0,145
-256,380	-29,170	-0,059	0,024
-255,365	489,512	-0,067	0,111
-254,351	86,200	-0,036	0,028
-253,336	-200,000	-0,015	0,063
-252,322	800,000	-0,005	-0,012
-251,307	-49,254	-0,072	0,025
-250,292	800,000	0,028	0,058
-249,278	800,000	-0,020	0,057
-248,263	-200,000	-0,014	0,169
-247,249	800,000	0,060	0,132
-246,234	-11,799	0,035	0,017
-245,219	-171,145	0,046	-0,001
-244,205	-31,000	-0,124	-0,050
-243,190	-86,513	0,043	0,009
-242,176	-102,829	0,170	0,029
-241,161	118,538	-0,041	0,037
-240,146	-200,000	-0,013	0,190
-239,132	-94,752	0,084	-0,016
-238,117	611,245	-0,068	-0,123
-237,103	-98,090	-0,047	-0,009
-236,088	430,107	0,035	-0,054
-235,073	529,469	0,030	0,051
-234,059	337,819	-0,097	0,136
-233,044	-200,000	0,001	-0,074
-232,030	637,936	-0,043	-0,079
-231,015	67,685	-0,017	-0,013
-230,000	43,845	-0,069	0,046
-228,986	-41,327	-0,090	0,033
-227,971	100,481	0,069	-0,058
-226,957	-32,455	0,113	0,045
-225,942	800,000	-0,044	0,112
-224,927	-50,979	-0,111	0,037
-223,913	170,065	0,070	-0,072
-222,898	-200,000	-0,006	-0,058
-221,884	-60,929	-0,078	-0,024
-220,869	-120,860	0,037	0,004
-219,855	246,041	-0,050	0,061
-218,840	-200,000	-0,014	0,059
-217,825	-2,504	0,130	-0,065
-216,811	112,336	0,052	0,045
-215,796	-91,684	0,152	-0,031
-214,782	104,330	-0,120	-0,102
-213,767	-200,000	-0,028	0,171
-212,752	94,585	0,059	0,049
-211,738	231,318	0,060	-0,070
-210,723	-101,660	-0,034	-0,006
-209,709	800,000	0,043	-0,090
-208,694	22,541	-0,080	0,047
-207,679	124,003	0,097	-0,088
-206,665	-200,000	-0,012	-0,044
-205,650	-109,758	-0,073	0,011
-204,636	178,036	0,108	0,114
-203,621	-200,000	-0,003	-0,036
-202,606	148,273	-0,119	0,116
-201,592	-138,281	0,106	0,008
-200,577	517,002	-0,055	0,093
-199,563	-200,000	-0,016	0,113
-198,548	115,456	-0,063	-0,055
-197,533	196,632	0,062	-0,068
-196,519	-57,762	0,033	-0,010
-195,504	35,519	0,104	0,066
-194,490	54,840	-0,103	-0,071
-193,475	220,198	0,041	0,047
-192,460	151,863	0,103	0,101
-191,446	800,000	-0,009	0,023
-190,431	800,000	0,034	0,075
-189,417	800,000	-0,039	-0,085
-188,402	46,124	0,147	0,098
-187,387	-200,000	0,002	0,031
-186,373	662,439	0,043	-0,080
-185,358	-170,747	0,134	-0,003
-184,344	272,802	-0,093	-0,119
-183,329	-2,328	0,194	0,098
-182,315	800,000	0,026	0,051
-181,300	-7,414	0,073	0,036
-180,285	800,000	0,034	0,078
-179,271	105,434	-0,107	0,091
-178,256	253,182	0,141	0,173
-177,242	14,270	0,073	-0,041
-176,227	123,111	0,080	0,072
-175,212	800,000	0,068	0,186
-174,198	-200,000	0,000	0,072
-173,183	800,000	-0,044	-0,132
-172,169	3,218	0,149	-0,078
-171,154	760,657	0,007	0,013
-170,139	-200,000	-0,012	-0,105
-169,125	56,899	0,143	0,100
-168,110	-200,000	0,016	0,084
-167,096	800,000	-0,047	-0,113
-166,081	-19,281	0,092	0,041
-165,066	-200,000	-0,021	0,112
-164,052	633,307	-0,019	-0,035
-163,037	-144,989	-0,034	-0,002
-162,023	800,000	-0,036	-0,105
-161,008	-108,398	0,120	0,018
-159,993	110,418	0,080	-0,069
-158,979	57,368	-0,057	0,040
-157,964	136,142	-0,098	-0,092
-156,950	-0,124	-0,137	0,070
-155,935	402,867	-0,042	0,063
-154,920	191,841	-0,103	-0,112
-153,906	-200,000	-0,031	-0,106
-152,891	469,797	-0,060	0,097
-151,877	-200,000	-0,041	-0,145
-150,862	739,427	0,016	-0,032
-149,847	800,000	-0,050	-0,129
-148,833	-200,000	0,022	0,071
-147,818	-62,411	-0,050	0,015
-146,804	-200,000	-0,016	0,101
-145,789	-200,000	0,012	0,144
-144,775	-200,000	-0,016	0,075
-143,760	-90,137	0,161	0,033
-142,745	-167,043	0,109	-0,003
-141,731	61,570	-0,035	0,025
-140,716	-12,053	0,133	0,063
-139,702	-200,000	-0,002	0,110
-138,687	34,491	-0,110	0,069
-137,672	171,562	0,058	-0,060
-136,658	-41,625	0,114	0,042
-135,643	-10,797	0,102	-0,048
-134,629	402,076	0,030	0,046
-133,614	39,585	0,068	-0,044
-132,599	81,035	0,068	-0,052
-131,585	46,778	0,086	0,057
-130,570	235,151	-0,034	-0,040
-129,556	-40,948	-0,233	-0,086
-128,541	79,746	0,016	0,012
-127,526	-200,000	-0,013	0,106
-126,512	-66,889	0,062	0,017
-125,497	-96,777	0,122	-0,023
-124,483	294,843	0,060	0,078
-123,468	800,000	0,019	0,047
-122,453	-32,014	0,042	0,017
-121,439	-41,025	0,027	0,010
-120,424	-200,000	-0,015	0,088
-119,410	-50,238	-0,091	0,031
