DTS Sentinel unit serial number:	SN410029Multiplexer serial number:	ORYXHardware model number:	OX2-SRSoftware version number:	ORYX F/W v4,00 Oryx Data Collector v3.7.2.0data status	okinstallation	B6 Nyhavnadifferential loss correction	single-endedforward channel	channel 2reverse channel	N/Adate	2023/12/07time	19:40:08forward acquisition time	300,00reverse acquisition time	0,00gamma	499,1914k internal	0,3164k external	0,3164temperature offset calibration	1,0000default loss term (dB/km)	0,3820temperature slope calibration	1,0000multiplexer offset coefficient	1,0000multiplexer slope coefficient	1,0000fibre end	0,00T internal ref (°C)	13,95T ext. ref 1 (°C)	-3,01T ext. ref 2 (°C)	-2,99length (m)	temperature (°C)	Stokes	anti-Stokes-744,400	-122,822	0,183	-0,022
-743,385	-89,325	-0,280	0,060
-742,371	-99,505	0,305	0,056
-741,356	-84,853	-0,387	-0,089
-740,342	-90,486	0,179	0,038
-739,327	-25,037	-0,187	-0,081
-738,312	-14,999	0,196	0,092
-737,298	-150,393	-0,303	-0,017
-736,283	33,057	0,274	0,174
-735,269	-177,506	-0,175	-0,003
-734,254	800,000	0,050	0,106
-733,239	-25,938	-0,511	-0,220
-732,225	-171,612	0,223	-0,005
-731,210	441,431	0,028	0,046
-730,196	-128,966	-0,109	-0,011
-729,181	605,342	-0,045	-0,083
-728,167	390,317	0,037	-0,056
-727,152	-200,000	-0,017	-0,081
-726,137	-155,550	-0,158	-0,007
-725,123	-200,000	0,000	0,009
-724,108	-94,077	-0,090	-0,018
-723,094	145,737	-0,027	0,027
-722,079	36,260	-0,118	-0,077
-721,064	-121,323	-0,056	-0,007
-720,050	-29,276	0,039	0,016
-719,035	-200,000	-0,012	0,093
-718,021	-47,504	-0,005	-0,002
-717,006	-12,957	-0,047	-0,022
-715,991	-144,368	-0,176	0,012
-714,977	800,000	0,060	-0,162
-713,962	800,000	0,003	0,010
-712,948	-200,000	0,009	-0,037
-711,933	379,878	0,057	-0,087
-710,918	345,686	-0,074	-0,107
-709,904	118,932	-0,131	-0,119
-708,889	-200,000	0,020	-0,127
-707,875	-200,000	-0,039	-0,139
-706,860	16,091	0,089	0,052
-705,845	59,662	-0,041	0,030
-704,831	8,650	0,044	-0,024
-703,816	168,034	-0,018	-0,018
-702,802	268,944	0,028	0,037
-701,787	135,288	-0,022	0,021
-700,772	374,871	0,017	0,026
-699,758	-64,602	-0,027	-0,008
-698,743	-200,000	-0,004	0,040
-697,729	-200,000	-0,032	0,169
-696,714	250,173	0,092	0,115
-695,699	25,317	-0,053	-0,033
-694,685	800,000	-0,051	0,125
-693,670	800,000	0,013	-0,040
-692,656	800,000	-0,119	-0,304
-691,641	-200,000	0,018	-0,110
-690,627	-200,000	-0,018	0,089
-689,612	778,663	-0,082	-0,164
-688,597	523,798	0,042	-0,073
-687,583	-200,000	0,003	-0,024
-686,568	-200,000	-0,054	-0,190
-685,554	8,422	-0,083	0,046
-684,539	504,842	0,045	-0,077
-683,524	-200,000	-0,016	0,186
-682,510	-6,928	-0,059	-0,029
-681,495	-13,662	-0,088	0,041
-680,481	800,000	-0,048	-0,117
-679,466	186,636	0,005	0,006
-678,451	-21,059	-0,068	-0,030
-677,437	23,105	0,113	0,068
-676,422	206,130	0,037	0,043
-675,408	523,917	-0,035	0,060
-674,393	99,573	0,039	-0,033
-673,378	-42,624	-0,125	-0,046
-672,364	52,583	0,031	0,022
-671,349	-99,282	-0,107	-0,020
-670,335	117,028	0,097	0,087
-669,320	-110,463	-0,037	0,006
-668,305	-200,000	0,007	-0,056
-667,291	-68,859	-0,116	-0,033
-666,276	459,710	-0,015	-0,024
-665,262	-68,173	0,059	-0,017
-664,247	227,403	0,092	-0,110
-663,232	30,947	-0,111	0,069
-662,218	-75,401	0,136	0,035
-661,203	-43,389	-0,137	0,050
-660,189	641,780	-0,020	0,037
-659,174	-13,452	-0,048	-0,023
-658,159	-200,000	-0,025	0,114
-657,145	75,966	-0,025	-0,019
-656,130	-118,976	0,074	-0,009
-655,116	257,280	-0,023	-0,029
-654,101	-61,131	0,086	0,027
-653,086	-200,000	-0,002	-0,029
-652,072	-5,699	0,094	0,047
-651,057	-36,814	-0,068	0,027
-650,043	-49,004	-0,085	-0,030
-649,028	-99,544	-0,110	0,020
-648,014	-200,000	0,034	0,115
-646,999	72,708	0,110	0,084
-645,984	800,000	-0,029	-0,062
-644,970	-132,280	-0,170	-0,016
-643,955	800,000	0,032	0,086
-642,941	103,042	0,040	0,034
-641,926	-200,000	0,007	0,110
-640,911	628,965	0,046	-0,086
-639,897	320,746	0,058	-0,081
-638,882	376,976	-0,017	0,026
-637,868	-20,167	0,066	-0,030
-636,853	86,931	-0,027	0,022
-635,838	-200,000	-0,013	-0,151
-634,824	83,207	-0,057	-0,046
-633,809	418,201	-0,057	-0,090
-632,795	-200,000	0,009	-0,037
-631,780	141,253	0,070	-0,068
-630,765	-200,000	-0,023	0,141
-629,751	57,595	-0,074	0,053
-628,736	-200,000	-0,002	0,033
-627,722	-200,000	-0,003	0,078
-626,707	19,037	-0,209	0,123
-625,692	22,357	-0,117	0,070
-624,678	89,655	0,078	-0,064
-623,663	328,665	-0,055	0,077
-622,649	132,984	-0,082	0,077
-621,634	-70,937	0,085	-0,023
-620,619	-136,261	-0,101	-0,009
-619,605	-81,510	0,157	-0,038
-618,590	185,607	0,054	0,059
-617,576	0,579	0,020	-0,010
-616,561	-52,684	-0,106	0,036
-615,546	-11,090	-0,072	-0,035
-614,532	792,463	-0,048	0,097
-613,517	308,592	-0,066	0,091
-612,503	-200,000	0,015	0,118
-611,488	136,291	0,027	0,026
-610,474	-41,995	-0,034	-0,013
-609,459	800,000	0,069	0,155
-608,444	-200,000	-0,005	-0,148
-607,430	-31,533	-0,069	-0,028
-606,415	-31,010	-0,163	-0,067
-605,401	268,675	-0,007	-0,009
-604,386	163,064	0,095	0,098
-603,371	-50,244	0,182	0,063
-602,357	-200,000	0,012	-0,079
-601,342	-34,369	-0,145	-0,058
-600,328	-125,306	-0,093	-0,010
-599,313	-200,000	0,017	-0,075
-598,298	-200,000	-0,007	-0,051
-597,284	259,282	-0,076	0,096
-596,269	53,414	0,128	-0,090
-595,255	190,715	0,075	-0,083
-594,240	628,086	-0,044	-0,083
-593,225	800,000	-0,033	-0,100
-592,211	151,785	-0,043	0,043
-591,196	-53,305	0,114	-0,038
-590,182	-200,000	0,014	-0,126
-589,167	-200,000	0,004	0,128
-588,152	-200,000	-0,004	0,070
-587,138	-81,739	-0,117	-0,028
-586,123	-146,347	-0,075	0,005
-585,109	168,120	0,110	-0,115
-584,094	164,346	0,058	-0,060
-583,079	-124,236	-0,080	-0,009
-582,065	-149,529	0,035	-0,002
-581,050	344,869	-0,057	0,082
-580,036	-163,973	0,093	0,003
-579,021	-200,000	-0,022	0,095
-578,006	19,736	-0,193	-0,113
-576,992	-178,483	-0,029	-0,000
-575,977	-152,599	0,106	-0,005
-574,963	-120,732	0,065	0,008
-573,948	309,958	-0,022	0,031
-572,934	698,016	0,025	0,049
-571,919	-200,000	-0,001	0,095
-570,904	-200,000	0,000	0,044
-569,890	83,628	-0,108	0,086
-568,875	-20,925	0,141	-0,063
-567,861	192,046	-0,051	0,057
-566,846	800,000	0,058	-0,121
-565,831	-151,570	0,023	-0,001
-564,817	550,236	-0,033	0,058
-563,802	164,691	0,027	-0,028
-562,788	800,000	0,024	0,071
-561,773	251,890	-0,092	0,114
-560,758	800,000	0,037	0,078
-559,744	-120,624	0,115	-0,014
-558,729	-86,127	0,030	0,007
-557,715	72,705	-0,041	-0,032
-556,700	800,000	0,011	0,034
-555,685	-78,705	0,145	-0,036
-554,671	-200,000	-0,012	-0,126
-553,656	287,373	0,044	0,058
-552,642	481,086	0,058	0,096
-551,627	29,177	-0,064	0,039
-550,612	34,228	-0,048	-0,031
-549,598	-200,000	-0,025	-0,218
-548,583	56,283	-0,044	-0,031
-547,569	197,314	0,094	0,105
-546,554	257,645	0,006	-0,008
-545,539	-155,330	0,012	-0,001
-544,525	370,226	0,039	0,058
-543,510	-28,492	-0,189	-0,079
-542,496	484,971	-0,024	0,040
-541,481	65,805	0,109	0,080
-540,466	7,466	-0,061	0,033
-539,452	39,557	0,074	-0,048
-538,437	232,527	0,098	0,118
-537,423	256,525	0,090	0,113
-536,408	-200,000	-0,020	-0,099
-535,393	78,487	-0,107	0,083
-534,379	-107,055	-0,088	0,014
-533,364	800,000	-0,030	-0,081
-532,350	77,699	-0,052	-0,040
-531,335	185,805	-0,042	-0,046
-530,321	-81,846	-0,016	0,004
-529,306	-200,000	-0,038	-0,189
-528,291	-200,000	0,000	-0,097
-527,277	-200,000	-0,003	-0,080
-526,262	-124,092	0,035	-0,004
-525,248	-98,808	0,062	-0,011
-524,233	-43,519	0,031	0,012
-523,218	-107,696	0,191	0,030
-522,204	-140,472	-0,093	-0,007
-521,189	-74,549	-0,083	-0,022
-520,175	-200,000	-0,001	0,027
-519,160	388,539	0,043	-0,065
-518,145	-20,775	-0,103	-0,046
-517,131	-158,237	0,098	0,004
-516,116	-200,000	-0,025	0,097
-515,102	800,000	-0,019	-0,048
-514,087	303,325	0,042	-0,057
-513,072	22,464	-0,059	-0,035
-512,058	-83,050	-0,145	-0,034
-511,043	421,203	0,045	-0,071
-510,029	131,333	-0,070	0,065
-509,014	-200,000	-0,021	-0,085
-507,999	27,287	0,129	-0,079
-506,985	800,000	-0,042	-0,087
-505,970	-53,058	-0,082	0,027
-504,956	-200,000	-0,003	-0,077
-503,941	800,000	0,010	-0,028
-502,926	-100,911	-0,102	0,018
-501,912	-110,198	0,138	0,021
-500,897	316,393	0,098	-0,136
-499,883	55,046	-0,113	-0,079
-498,868	745,693	-0,040	0,079
-497,853	-200,000	-0,018	-0,058
-496,839	222,708	0,040	-0,047
-495,824	-200,000	0,025	0,089
-494,810	-70,711	0,099	0,027
-493,795	800,000	0,042	0,100
-492,781	296,662	0,091	0,122
-491,766	112,480	-0,053	-0,046
-490,751	-30,830	-0,107	0,044
-489,737	-106,539	0,105	0,017
-488,722	-200,000	-0,008	-0,098
-487,708	800,000	-0,045	0,099
-486,693	-91,219	0,043	-0,009
-485,678	189,534	-0,106	0,116
-484,664	800,000	-0,045	-0,092
-483,649	-108,257	-0,133	-0,021
-482,635	59,301	-0,150	-0,107
-481,620	617,466	0,058	-0,106
-480,605	-200,000	-0,014	0,080
-479,591	-200,000	-0,024	0,088
-478,576	44,175	0,015	-0,010
-477,562	66,386	-0,057	0,042
-476,547	-17,938	-0,067	-0,030
-475,532	800,000	-0,017	-0,040
-474,518	-7,496	0,101	0,049
-473,503	164,120	0,068	0,070
-472,489	-200,000	0,003	0,081
-471,474	-129,945	0,036	0,004
-470,459	800,000	-0,024	-0,072
-469,445	87,207	-0,058	-0,046
-468,430	800,000	-0,017	0,051
-467,416	-200,000	-0,005	-0,176
-466,401	-200,000	-0,008	0,106
-465,386	-200,000	0,018	-0,061
-464,372	-90,873	-0,057	-0,012
-463,357	25,330	0,083	-0,050
-462,343	8,955	0,162	0,089
-461,328	-93,177	-0,100	0,020
-460,313	-200,000	0,046	-0,160
-459,299	25,224	0,053	-0,032
-458,284	64,757	0,076	-0,056
-457,270	-200,000	-0,009	-0,088
-456,255	2,757	-0,049	-0,026
-455,241	800,000	0,011	-0,030
-454,226	124,671	-0,104	0,095
-453,211	-72,222	0,142	-0,038
-452,197	233,428	0,089	0,106
-451,182	-27,035	-0,098	-0,042
-450,168	112,018	0,112	-0,099
-449,153	-120,555	0,072	-0,009
-448,138	-23,225	-0,073	0,032
-447,124	172,131	-0,050	0,052
-446,109	180,577	0,030	-0,032
-445,095	800,000	0,039	-0,115
-444,080	-45,706	0,138	0,049
-443,065	-200,000	0,019	0,094
-442,051	34,992	0,069	0,044
-441,036	-95,621	-0,077	0,015
-440,022	800,000	0,092	-0,202
-439,007	-200,000	-0,006	-0,191
-437,992	122,875	0,132	0,120
-436,978	-122,346	0,099	0,012
-435,963	-72,285	-0,073	0,020
-434,949	-200,000	0,023	0,116
-433,934	-200,000	-0,002	-0,028
-432,919	147,567	-0,121	-0,119
-431,905	-71,848	0,064	0,017
-430,890	-130,464	-0,058	-0,006
-429,876	70,140	0,076	0,057
-428,861	-122,651	-0,062	0,007
-427,846	137,133	-0,045	-0,042
-426,832	4,557	-0,119	-0,063
-425,817	-131,831	-0,020	-0,002
-424,803	27,428	0,131	-0,080
-423,788	78,383	-0,069	0,053
-422,773	148,769	0,040	0,039
-421,759	30,554	-0,102	0,063
-420,744	62,068	0,078	0,057
-419,730	-90,204	-0,081	-0,017
-418,715	-200,000	0,020	-0,155
-417,701	800,000	-0,059	-0,133
-416,686	344,904	0,080	-0,115
-415,671	800,000	0,026	-0,059
-414,657	326,356	-0,062	0,086
-413,642	739,946	0,024	0,046
-412,628	218,135	-0,099	-0,115
-411,613	-73,711	-0,148	-0,039
-410,598	-23,777	-0,088	-0,038
-409,584	609,995	0,053	0,096
-408,569	22,321	0,015	-0,009
-407,555	297,273	0,080	0,107
-406,540	378,292	0,025	0,037
-405,525	332,112	-0,028	0,039
-404,511	-118,896	-0,081	-0,010
-403,496	146,976	-0,042	0,041
-402,482	178,860	-0,051	0,054
-401,467	135,942	0,053	0,050
-400,452	158,244	0,049	-0,049
-399,438	-200,000	0,012	-0,058
-398,423	5,679	-0,046	-0,025
-397,409	-56,528	-0,084	0,027
-396,394	714,701	-0,040	-0,078
-395,379	3,279	-0,056	0,030
-394,365	365,828	-0,027	-0,040
-393,350	800,000	-0,035	0,089
-392,336	-36,706	-0,163	0,063
-391,321	791,725	-0,049	0,098
-390,306	-200,000	-0,002	-0,074
-389,292	53,189	-0,123	-0,085
-388,277	-159,394	0,162	0,006
-387,263	127,529	-0,083	-0,077
-386,248	61,902	0,030	0,022
-385,233	800,000	-0,032	0,089
-384,219	800,000	0,071	-0,191
-383,204	-36,613	-0,087	-0,034
-382,190	800,000	-0,019	-0,049
-381,175	-200,000	0,023	-0,184
-380,160	96,923	0,027	0,023
-379,146	-149,843	-0,080	-0,004
-378,131	-90,636	0,130	0,027
-377,117	800,000	0,034	0,083
-376,102	108,023	-0,022	-0,019
-375,088	-78,658	-0,110	0,027
-374,073	-200,000	0,010	0,070
-373,058	-200,000	-0,091	0,000
-372,044	-200,000	-0,009	0,034
-371,029	-0,833	-0,048	-0,025
-370,015	-122,568	-0,083	0,010
-369,000	2,462	0,100	0,052
-367,985	724,662	0,061	-0,119
-366,971	-173,412	0,082	-0,002
-365,956	24,377	-0,109	0,065
-364,942	800,000	-0,012	-0,035
-363,927	-200,000	-0,001	-0,041
-362,912	800,000	-0,017	-0,049
-361,898	463,705	-0,044	-0,072
-360,883	106,923	0,061	-0,052
-359,869	-200,000	0,009	-0,106
-358,854	29,843	-0,048	0,029
-357,839	-55,992	-0,058	0,019
-356,825	-6,350	-0,127	0,063
-355,810	324,636	-0,027	-0,037
-354,796	800,000	-0,027	-0,079
-353,781	-200,000	0,028	-0,109
-352,766	-200,000	0,018	-0,062
-351,752	147,911	0,065	-0,064
-350,737	-113,647	-0,065	0,009
-349,723	800,000	0,036	0,077
-348,708	-200,000	-0,012	-0,072
-347,693	-100,046	-0,151	0,027
-346,679	-40,811	0,059	-0,022
-345,664	-128,945	0,085	0,008
-344,650	-121,201	0,154	0,018
-343,635	-175,718	0,088	0,002
-342,620	603,430	-0,021	0,039
-341,606	126,558	0,082	-0,075
-340,591	141,069	-0,089	-0,086
-339,577	111,396	0,023	-0,020
-338,562	-200,000	-0,038	-0,129
-337,548	-200,000	-0,010	0,069
-336,533	-200,000	0,001	-0,026
-335,518	117,068	0,044	0,039
-334,504	-200,000	0,017	-0,093
-333,489	356,544	0,057	0,082
-332,475	-75,462	-0,083	-0,021
-331,460	-55,257	-0,050	-0,016
-330,445	-200,000	-0,029	0,100
-329,431	-105,010	0,111	-0,018
-328,416	-76,331	0,148	-0,037
-327,402	-200,000	0,002	0,022
-326,387	-25,285	-0,127	-0,054
-325,372	499,213	0,059	0,099
-324,358	350,310	-0,035	-0,050
-323,343	-200,000	-0,014	-0,127
-322,329	390,398	0,058	0,088
-321,314	800,000	0,054	0,121
-320,299	122,246	-0,088	-0,080
-319,285	-200,000	-0,027	0,142
-318,270	-2,095	-0,031	0,016
-317,256	-54,062	-0,089	-0,029
-316,241	-63,455	0,122	-0,036
-315,226	58,452	-0,128	0,091
-314,212	70,091	0,027	0,020
-313,197	186,739	0,031	-0,033
-312,183	-200,000	0,029	0,150
-311,168	-10,823	-0,078	-0,037
-310,153	-90,859	-0,064	-0,013
-309,139	-20,987	-0,127	-0,056
-308,124	-200,000	-0,018	0,059
-307,110	-67,378	0,076	0,022
-306,095	45,544	0,121	0,081
-305,080	-97,078	0,122	-0,023
-304,066	-193,348	0,049	0,000
-303,051	436,172	0,004	0,006
-302,037	-176,546	0,099	0,002
-301,022	-200,000	-0,028	0,186
-300,008	-88,875	-0,052	-0,011
-298,993	-200,000	0,056	-0,305
-297,978	-45,818	0,122	-0,043
-296,964	-71,584	0,085	0,023
-295,949	426,732	0,009	0,014
-294,935	-26,442	-0,093	-0,039
-293,920	310,661	-0,040	-0,054
-292,905	-46,089	-0,080	0,028
-291,891	-200,000	0,001	-0,045
-290,876	30,247	-0,084	0,052
-289,862	-65,976	-0,085	0,024
-288,847	693,808	-0,047	0,090
-287,832	-25,583	0,081	-0,034
-286,818	288,985	0,109	-0,144
-285,803	-15,979	0,152	0,070
-284,789	37,242	-0,105	-0,067
-283,774	-200,000	0,017	-0,057
-282,759	-190,327	-0,104	-0,001
-281,745	-19,900	-0,072	0,032
-280,730	-120,557	0,015	0,002
-279,716	800,000	-0,034	0,070
-278,701	98,354	0,158	0,131
-277,686	-200,000	0,007	-0,027
-276,672	259,937	-0,039	0,048
-275,657	-76,277	0,048	0,012
-274,643	-67,335	0,072	0,020
-273,628	167,153	0,024	-0,025
-272,613	-107,635	0,200	-0,031
-271,599	-47,647	0,157	-0,055
-270,584	-200,000	-0,018	0,096
-269,570	7,638	0,122	-0,066
-268,555	477,464	-0,041	-0,067
-267,540	800,000	0,032	0,073
-266,526	341,882	0,034	0,048
-265,511	244,733	-0,047	-0,057
-264,497	-105,675	0,084	0,014
-263,482	-128,838	-0,058	-0,006
-262,467	-200,000	0,000	0,158
-261,453	713,718	0,039	0,075
-260,438	89,563	0,040	0,032
-259,424	-97,538	0,079	-0,015
-258,409	-68,620	-0,054	0,015
-257,395	-200,000	0,006	-0,024
-256,380	240,012	0,037	-0,045
-255,365	-49,377	0,087	0,030
-254,351	-18,701	-0,076	-0,034
-253,336	349,374	-0,045	0,064
-252,322	-111,602	0,073	0,011
-251,307	296,612	0,045	0,060
-250,292	-50,156	0,064	-0,022
-249,278	-200,000	-0,009	0,259
-248,263	246,453	-0,049	-0,060
-247,249	48,068	-0,132	-0,089
-246,234	107,256	-0,060	0,052
-245,219	-75,638	-0,141	0,036
-244,205	-200,000	0,005	-0,067
-243,190	200,521	-0,041	-0,045
-242,176	800,000	0,045	-0,128
-241,161	112,438	-0,019	-0,017
-240,146	-200,000	0,005	0,133
-239,132	304,431	-0,105	-0,141
-238,117	595,599	-0,061	-0,110
-237,103	38,629	0,024	-0,015
-236,088	199,266	-0,043	-0,047
-235,073	-92,217	0,180	-0,036
-234,059	-200,000	0,014	0,195
-233,044	-200,000	0,003	0,036
-232,030	-200,000	0,001	-0,005
-231,015	132,299	-0,087	-0,081
-230,000	-20,888	-0,044	-0,019
-228,986	800,000	-0,020	-0,045
-227,971	-200,000	0,007	0,029
-226,957	-200,000	-0,006	-0,041
-225,942	-24,731	-0,055	0,023
-224,927	294,370	-0,012	-0,016
-223,913	800,000	-0,023	0,068
-222,898	13,933	0,073	0,041
-221,884	-15,730	0,129	-0,059
-220,869	-26,150	-0,035	-0,015
-219,855	-116,502	0,018	-0,002
-218,840	374,810	-0,029	0,043
-217,825	131,466	-0,028	-0,026
-216,811	-200,000	-0,050	-0,203
-215,796	3,803	-0,189	-0,099
-214,782	204,490	0,054	0,060
-213,767	-102,879	0,131	-0,022
-212,752	-58,203	0,131	0,041
-211,738	523,438	-0,038	0,064
-210,723	-200,000	-0,034	-0,124
-209,709	-200,000	-0,013	-0,050
-208,694	21,193	-0,033	-0,019
-207,679	109,479	-0,033	0,028
-206,665	41,993	0,085	-0,055
-205,650	-182,862	0,108	0,001
-204,636	345,509	-0,039	0,055
-203,621	15,814	0,030	-0,017
-202,606	800,000	-0,030	-0,061
-201,592	-60,403	0,102	0,031
-200,577	-200,000	0,004	-0,033
-199,563	800,000	-0,061	-0,179
-198,548	-160,673	0,139	-0,005
-197,533	11,333	0,079	0,043
-196,519	-200,000	0,010	0,071
-195,504	-9,624	-0,036	-0,017
-194,490	7,579	-0,059	0,032
-193,475	145,555	0,032	0,031
-192,460	160,824	0,124	0,125
-191,446	-200,000	-0,017	0,056
-190,431	95,684	-0,056	0,046
-189,417	800,000	0,015	0,037
-188,402	-8,418	-0,028	-0,014
-187,387	-200,000	-0,012	0,101
-186,373	-200,000	0,003	0,084
-185,358	800,000	-0,031	0,085
-184,344	107,515	0,081	0,069
-183,329	-200,000	-0,017	-0,062
-182,315	122,310	0,105	0,094
-181,300	-200,000	0,014	0,090
-180,285	-38,730	0,056	-0,021
-179,271	52,833	0,019	0,013
-178,256	-53,960	0,015	0,005
-177,242	-200,000	-0,007	0,034
-176,227	-200,000	-0,003	0,125
-175,212	232,130	-0,048	0,057
-174,198	57,580	-0,071	-0,050
-173,183	140,290	0,093	0,089
-172,169	119,482	0,021	-0,019
-171,154	116,281	-0,030	-0,026
-170,139	477,014	0,074	0,121
-169,125	302,118	0,071	0,095
-168,110	284,541	-0,022	0,028
-167,096	421,579	0,024	-0,036
-166,081	22,045	0,122	0,071
-165,066	-122,790	-0,070	-0,008
-164,052	-132,912	0,087	0,008
-163,037	57,825	-0,138	0,097
-162,023	-200,000	0,003	0,070
-161,008	-200,000	0,013	0,146
-159,993	-106,897	-0,042	0,007
-158,979	-200,000	0,002	0,040
-157,964	800,000	-0,027	-0,063
-156,950	-200,000	-0,012	0,043
-155,935	311,532	0,103	0,139
-154,920	284,522	0,008	0,010
-153,906	-5,240	-0,052	0,026
-152,891	104,449	0,055	-0,047
-151,877	-200,000	-0,002	-0,016
-150,862	63,059	-0,027	-0,019
-149,847	-200,000	-0,038	0,141
-148,833	324,806	-0,065	0,089
-147,818	-148,074	0,089	-0,005
-146,804	-200,000	0,003	-0,037
-145,789	507,965	-0,042	0,070
-144,775	177,769	0,069	-0,073
-143,760	-200,000	-0,015	-0,130
-142,745	800,000	0,055	-0,157
-141,731	-7,210	-0,072	0,035
-140,716	800,000	-0,041	-0,098
-139,702	-200,000	0,041	-0,202
-138,687	-200,000	0,021	0,085
-137,672	449,778	0,086	-0,136
-136,658	17,067	-0,066	-0,038
-135,643	371,928	-0,047	-0,068
-134,629	316,145	-0,015	-0,020
-133,614	-102,154	-0,114	-0,019
-132,599	-200,000	-0,007	-0,028
-131,585	549,869	0,003	0,005
-130,570	-200,000	-0,023	0,161
-129,556	-97,804	0,083	0,015
-128,541	-200,000	0,023	0,103
-127,526	16,188	-0,117	0,066
-126,512	-140,414	-0,062	0,005
-125,497	110,590	0,095	0,082
-124,483	18,646	-0,043	0,025
-123,468	714,621	0,048	-0,091
-122,453	240,435	0,025	-0,030
-121,439	-131,078	-0,108	-0,010
-120,424	-200,000	-0,012	-0,080
