DTS Sentinel unit serial number:	SN410029Multiplexer serial number:	ORYXHardware model number:	OX2-SRSoftware version number:	ORYX F/W v4,00 Oryx Data Collector v3.7.2.0data status	okinstallation	B6 Nyhavnadifferential loss correction	single-endedforward channel	channel 2reverse channel	N/Adate	2023/12/08time	05:15:08forward acquisition time	300,00reverse acquisition time	0,00gamma	499,1914k internal	0,3165k external	0,3165temperature offset calibration	1,0000default loss term (dB/km)	0,3820temperature slope calibration	1,0000multiplexer offset coefficient	1,0000multiplexer slope coefficient	1,0000fibre end	0,00T internal ref (°C)	13,04T ext. ref 1 (°C)	-3,86T ext. ref 2 (°C)	-3,84length (m)	temperature (°C)	Stokes	anti-Stokes-744,400	506,019	-0,013	0,021
-743,385	-71,845	-0,298	-0,081
-742,371	-23,114	0,272	0,120
-741,356	-32,534	-0,304	0,124
-740,342	800,000	0,051	0,147
-739,327	-82,575	-0,329	-0,078
-738,312	785,447	0,063	0,128
-737,298	-187,882	-0,426	-0,004
-736,283	-150,702	0,138	-0,008
-735,269	-93,052	-0,209	-0,043
-734,254	800,000	0,052	0,128
-733,239	-39,375	-0,365	-0,140
-732,225	-152,149	0,376	-0,020
-731,210	-200,000	-0,006	-0,127
-730,196	256,899	-0,081	-0,102
-729,181	-200,000	-0,008	0,044
-728,167	86,856	0,064	-0,052
-727,152	541,210	0,095	0,167
-726,137	-39,317	-0,141	-0,054
-725,123	-133,798	-0,105	-0,009
-724,108	-200,000	-0,030	-0,102
-723,094	-200,000	0,007	-0,213
-722,079	800,000	-0,039	-0,125
-721,064	-145,037	0,126	-0,008
-720,050	-61,975	0,167	0,051
-719,035	-33,007	-0,062	-0,025
-718,021	722,033	-0,050	-0,097
-717,006	383,014	-0,033	-0,050
-715,991	-200,000	0,002	-0,017
-714,977	-13,302	-0,031	-0,015
-713,962	-200,000	0,020	-0,145
-712,948	800,000	0,040	-0,093
-711,933	-152,260	-0,123	0,006
-710,918	216,098	0,008	0,009
-709,904	-152,112	-0,051	-0,003
-708,889	526,761	0,060	-0,104
-707,875	406,408	-0,040	-0,062
-706,860	127,743	0,057	-0,054
-705,845	-200,000	-0,001	0,021
-704,831	27,794	0,021	0,013
-703,816	480,325	0,033	-0,055
-702,802	10,779	-0,036	-0,020
-701,787	-54,063	-0,093	-0,031
-700,772	751,888	0,061	-0,121
-699,758	101,050	-0,104	-0,089
-698,743	562,837	0,021	-0,037
-697,729	-169,856	-0,182	0,005
-696,714	800,000	-0,027	0,070
-695,699	-48,291	-0,129	-0,045
-694,685	720,973	-0,059	-0,117
-693,670	128,903	-0,084	-0,078
-692,656	-200,000	0,006	-0,029
-691,641	-43,931	0,090	-0,033
-690,627	592,480	0,048	0,088
-689,612	404,020	-0,042	-0,065
-688,597	-163,186	-0,096	-0,003
-687,583	247,563	0,013	0,016
-686,568	-200,000	-0,005	0,143
-685,554	-92,531	0,080	-0,016
-684,539	400,952	-0,121	-0,187
-683,524	-200,000	0,027	-0,112
-682,510	334,592	-0,130	0,186
-681,495	-54,471	-0,064	-0,021
-680,481	160,079	-0,133	-0,136
-679,466	800,000	-0,010	-0,020
-678,451	-42,567	0,043	-0,016
-677,437	800,000	0,022	-0,056
-676,422	85,169	0,144	0,116
-675,408	-28,475	-0,048	-0,020
-674,393	204,978	0,026	0,030
-673,378	800,000	-0,070	-0,181
-672,364	604,316	-0,071	-0,131
-671,349	-102,720	-0,088	0,015
-670,335	147,113	0,012	-0,011
-669,320	231,886	0,011	0,014
-668,305	455,090	-0,066	0,108
-667,291	-200,000	0,018	-0,081
-666,276	-94,649	-0,100	-0,020
-665,262	-200,000	-0,008	-0,176
-664,247	-128,009	-0,160	-0,017
-663,232	-36,267	0,020	0,008
-662,218	-10,988	0,083	0,040
-661,203	-200,000	-0,001	0,010
-660,189	-71,763	0,054	-0,015
-659,174	-17,854	-0,137	0,063
-658,159	-81,642	-0,038	0,009
-657,145	-200,000	0,008	0,110
-656,130	151,153	-0,115	-0,115
-655,116	-118,975	-0,136	0,017
-654,101	17,784	0,050	-0,029
-653,086	-52,575	0,089	0,030
-652,072	-8,868	-0,058	-0,029
-651,057	-4,380	0,061	0,031
-650,043	422,434	-0,045	-0,071
-649,028	800,000	-0,008	0,020
-648,014	-200,000	-0,114	0,000
-646,999	800,000	-0,036	-0,100
-645,984	-200,000	-0,019	0,167
-644,970	57,820	-0,064	-0,046
-643,955	176,051	0,059	0,063
-642,941	305,456	-0,052	0,070
-641,926	96,612	-0,067	0,056
-640,911	-200,000	-0,023	-0,100
-639,897	208,338	0,032	0,036
-638,882	-142,055	-0,058	0,004
-637,868	-62,289	-0,129	0,039
-636,853	-67,798	-0,110	0,031
-635,838	-196,696	0,131	-0,001
-634,824	67,115	0,092	-0,069
-633,809	-11,369	0,226	0,109
-632,795	-10,549	-0,042	0,020
-631,780	800,000	-0,033	0,076
-630,765	-11,141	-0,040	0,019
-629,751	508,662	0,026	-0,045
-628,736	83,302	0,077	-0,062
-627,722	108,012	-0,059	-0,051
-626,707	-200,000	-0,025	0,098
-625,692	-131,444	0,161	0,015
-624,678	-200,000	0,040	0,229
-623,663	53,209	0,126	0,088
-622,649	-52,454	-0,097	-0,033
-621,634	-112,723	-0,147	0,021
-620,619	-200,000	-0,025	-0,122
-619,605	327,065	0,018	0,026
-618,590	28,656	0,046	-0,029
-617,576	-39,932	0,042	-0,016
-616,561	480,877	-0,073	-0,122
-615,546	-52,855	-0,117	0,039
-614,532	-200,000	-0,013	-0,044
-613,517	41,127	-0,118	0,078
-612,503	-56,230	0,038	-0,012
-611,488	445,287	-0,014	0,022
-610,474	-66,321	-0,099	0,029
-609,459	340,034	-0,011	-0,016
-608,444	-104,845	-0,100	0,017
-607,430	-200,000	-0,025	-0,147
-606,415	162,414	0,151	0,155
-605,401	-116,495	-0,090	0,012
-604,386	-108,610	0,032	0,005
-603,371	-200,000	-0,003	0,079
-602,357	193,824	0,033	-0,037
-601,342	800,000	0,020	0,044
-600,328	42,892	0,100	-0,067
-599,313	680,095	0,081	-0,155
-598,298	800,000	0,029	0,073
-597,284	800,000	-0,011	0,022
-596,269	274,101	-0,048	-0,063
-595,255	-52,379	0,080	-0,027
-594,240	102,360	0,012	-0,010
-593,225	800,000	0,008	-0,021
-592,211	-200,000	0,027	-0,088
-591,196	-151,869	-0,117	0,006
-590,182	441,945	0,027	0,043
-589,167	-15,447	0,111	0,052
-588,152	55,803	0,067	0,047
-587,138	-70,964	0,153	-0,042
-586,123	169,581	-0,090	-0,094
-585,109	226,453	-0,082	-0,098
-584,094	-200,000	-0,004	-0,071
-583,079	-47,562	0,073	-0,026
-582,065	62,892	0,126	0,092
-581,050	-200,000	-0,040	0,165
-580,036	-113,096	-0,081	0,011
-579,021	-98,719	0,059	-0,011
-578,006	-25,402	0,210	-0,090
-576,992	2,998	-0,064	-0,034
-575,977	60,246	-0,065	-0,047
-574,963	-24,027	-0,071	-0,031
-573,948	-105,059	0,090	0,015
-572,934	-200,000	0,005	0,033
-571,919	32,233	-0,129	-0,081
-570,904	800,000	-0,055	-0,148
-569,890	-68,873	-0,066	0,019
-568,875	-200,000	0,026	-0,101
-567,861	6,718	0,154	0,084
-566,846	-68,252	0,100	-0,028
-565,831	-200,000	0,005	-0,048
-564,817	-36,158	-0,035	0,014
-563,802	547,012	-0,101	-0,178
-562,788	-200,000	-0,007	0,179
-561,773	-200,000	0,001	0,095
-560,758	183,561	0,037	-0,040
-559,744	-40,635	-0,097	0,037
-558,729	800,000	-0,023	0,059
-557,715	-145,267	0,022	0,001
-556,700	-200,000	-0,025	-0,086
-555,685	-200,000	-0,002	-0,079
-554,671	354,267	0,032	0,046
-553,656	-56,408	0,099	0,032
-552,642	344,639	0,048	0,068
-551,627	-200,000	0,011	-0,070
-550,612	47,565	-0,019	0,013
-549,598	-46,956	-0,034	0,012
-548,583	-84,233	0,122	0,028
-547,569	800,000	-0,024	0,057
-546,554	800,000	0,030	-0,084
-545,539	-5,708	0,107	0,054
-544,525	317,830	-0,011	-0,015
-543,510	-6,065	-0,106	-0,053
-542,496	-1,952	0,025	-0,013
-541,481	195,389	-0,010	0,011
-540,466	39,548	0,078	-0,051
-539,452	-200,000	0,007	-0,053
-538,437	81,121	0,091	0,072
-537,423	14,449	-0,111	0,063
-536,408	800,000	0,047	-0,102
-535,393	149,910	0,018	0,017
-534,379	-60,700	0,079	-0,024
-533,364	-200,000	0,013	0,043
-532,350	336,364	0,073	-0,103
-531,335	800,000	0,023	0,056
-530,321	-200,000	0,002	-0,033
-529,306	50,341	-0,067	0,046
-528,291	800,000	0,023	0,048
-527,277	44,119	-0,049	0,033
-526,262	-90,766	-0,095	0,020
-525,248	800,000	-0,021	0,065
-524,233	800,000	0,042	0,104
-523,218	-27,289	0,094	-0,040
-522,204	394,889	0,089	-0,136
-521,189	-137,979	-0,121	-0,010
-520,175	391,788	-0,024	0,037
-519,160	800,000	-0,011	-0,026
-518,145	-53,466	0,045	-0,015
-517,131	-39,902	0,122	0,046
-516,116	2,060	0,045	0,023
-515,102	-200,000	-0,002	0,013
-514,087	231,361	-0,043	-0,051
-513,072	-11,497	-0,151	-0,072
-512,058	14,938	0,076	-0,043
-511,043	250,366	-0,028	0,034
-510,029	-200,000	0,016	-0,072
-509,014	-179,425	0,101	-0,002
-507,999	212,175	-0,098	-0,113
-506,985	-87,675	0,063	-0,014
-505,970	-200,000	0,001	-0,095
-504,956	217,458	0,055	0,063
-503,941	800,000	-0,044	-0,104
-502,926	-39,182	-0,021	0,008
-501,912	229,243	0,089	0,106
-500,897	-115,201	0,068	0,009
-499,883	800,000	0,032	0,084
-498,868	-22,521	0,038	0,017
-497,853	73,270	-0,113	0,086
-496,839	-91,438	0,104	0,022
-495,824	-200,000	0,001	0,030
-494,810	-200,000	0,016	-0,070
-493,795	-69,450	0,006	-0,002
-492,781	-85,615	0,153	-0,034
-491,766	63,596	-0,128	-0,094
-490,751	-113,565	-0,039	0,006
-489,737	228,005	0,064	-0,076
-488,722	-200,000	-0,000	0,090
-487,708	-102,402	0,065	-0,011
-486,693	800,000	-0,080	-0,220
-485,678	699,531	0,029	-0,056
-484,664	394,598	0,017	-0,026
-483,649	-115,219	0,059	0,008
-482,635	800,000	0,026	-0,063
-481,620	-200,000	-0,023	0,141
-480,605	-200,000	0,019	0,127
-479,591	47,107	-0,038	0,025
-478,576	800,000	-0,052	-0,107
-477,562	-13,994	-0,130	-0,061
-476,547	800,000	0,026	0,063
-475,532	-176,073	0,090	-0,002
-474,518	-145,936	0,098	-0,006
-473,503	-200,000	0,011	-0,057
-472,489	-200,000	-0,002	-0,056
-471,474	-200,000	-0,008	-0,028
-470,459	226,905	0,067	-0,079
-469,445	-138,077	-0,055	0,004
-468,430	146,319	0,078	-0,077
-467,416	-126,484	-0,080	-0,009
-466,401	-200,000	-0,003	-0,149
-465,386	-27,071	0,054	0,023
-464,372	800,000	0,046	-0,094
-463,357	68,725	0,046	0,034
-462,343	-5,659	-0,055	0,027
-461,328	-79,099	-0,005	0,001
-460,313	-61,370	0,073	-0,022
-459,299	-54,210	0,024	0,008
-458,284	800,000	0,014	0,031
-457,270	800,000	-0,019	0,052
-456,255	-73,295	-0,066	-0,017
-455,241	12,305	-0,065	0,036
-454,226	25,072	0,029	-0,018
-453,211	69,988	-0,156	0,117
-452,197	10,239	0,086	0,047
-451,182	24,253	0,054	0,032
-450,168	-200,000	0,001	0,081
-449,153	52,711	0,121	-0,084
-448,138	800,000	-0,024	-0,061
-447,124	-200,000	-0,019	-0,189
-446,109	773,951	0,022	-0,045
-445,095	-200,000	0,005	0,077
-444,080	800,000	-0,030	0,083
-443,065	800,000	-0,023	0,063
-442,051	-21,973	-0,009	-0,004
-441,036	-200,000	-0,001	-0,022
-440,022	800,000	-0,038	-0,091
-439,007	800,000	0,046	0,145
-437,992	13,037	0,184	0,103
-436,978	404,486	0,051	0,079
-435,963	263,482	-0,084	0,107
-434,949	268,094	0,063	0,080
-433,934	125,614	0,049	-0,045
-432,919	-144,433	0,006	-0,000
-431,905	800,000	-0,058	0,182
-430,890	-200,000	0,033	0,160
-429,876	-200,000	-0,021	-0,117
-428,861	55,159	0,082	0,057
-427,846	-200,000	0,002	0,075
-426,832	-171,399	-0,135	-0,003
-425,817	-113,624	0,097	-0,014
-424,803	-127,585	0,158	0,016
-423,788	800,000	0,012	0,034
-422,773	-200,000	-0,002	0,017
-421,759	94,093	-0,040	0,033
-420,744	214,830	-0,020	-0,023
-419,730	-200,000	-0,018	-0,187
-418,715	800,000	-0,019	-0,061
-417,701	625,628	0,060	-0,111
-416,686	-32,327	0,136	-0,055
-415,671	-200,000	0,014	0,083
-414,657	12,232	-0,054	-0,030
-413,642	-200,000	-0,020	0,078
-412,628	800,000	-0,004	-0,008
-411,613	72,688	-0,062	0,047
-410,598	-80,689	-0,065	-0,016
-409,584	-1,815	0,104	0,053
-408,569	159,475	0,041	0,042
-407,555	262,087	0,109	0,138
-406,540	175,090	0,036	-0,038
-405,525	361,283	0,038	-0,056
-404,511	-200,000	0,010	-0,063
-403,496	-95,473	-0,117	-0,023
-402,482	-174,017	0,162	0,003
-401,467	32,959	0,055	-0,035
-400,452	306,540	-0,059	0,079
-399,438	800,000	-0,038	0,096
-398,423	-139,821	-0,129	-0,010
-397,409	-200,000	0,017	0,067
-396,394	-78,207	0,120	-0,030
-395,379	16,962	-0,157	-0,090
-394,365	89,948	0,114	0,092
-393,350	-200,000	0,003	0,045
-392,336	282,983	-0,018	0,023
-391,321	184,709	-0,059	-0,063
-390,306	143,900	0,026	0,025
-389,292	97,121	0,101	-0,084
-388,277	-200,000	-0,007	-0,172
-387,263	455,501	0,056	0,090
-386,248	-200,000	0,003	0,009
-385,233	-200,000	0,006	-0,027
-384,219	45,262	-0,036	0,024
-383,204	-172,918	-0,131	-0,003
-382,190	800,000	0,020	0,062
-381,175	-115,504	0,080	-0,011
-380,160	162,219	-0,036	-0,037
-379,146	-79,868	0,028	0,007
-378,131	218,686	0,073	-0,085
-377,117	800,000	-0,025	0,072
-376,102	333,884	0,050	-0,070
-375,088	134,886	-0,093	-0,088
-374,073	-200,000	-0,021	-0,148
-373,058	169,073	0,044	0,046
-372,044	85,084	-0,063	0,050
-371,029	800,000	0,045	0,128
-370,015	217,883	-0,036	0,042
-369,000	-139,882	-0,103	0,008
-367,985	800,000	0,033	-0,068
-366,971	172,777	-0,035	0,037
-365,956	109,856	0,120	0,105
-364,942	800,000	0,046	0,104
-363,927	165,311	-0,034	-0,035
-362,912	131,263	-0,017	0,015
-361,898	-194,574	0,072	-0,000
-360,883	187,389	-0,092	-0,099
-359,869	215,361	0,060	0,069
-358,854	120,993	0,054	0,049
-357,839	-93,814	0,045	0,009
-356,825	362,930	-0,028	0,041
-355,810	63,794	0,056	0,041
-354,796	-70,238	-0,076	-0,021
-353,781	-18,998	-0,074	0,033
-352,766	72,871	-0,032	0,024
-351,752	258,091	0,098	0,123
-350,737	84,351	-0,030	0,024
-349,723	496,073	0,052	0,087
-348,708	800,000	0,056	-0,120
-347,693	-200,000	0,005	0,037
-346,679	42,406	0,051	-0,034
-345,664	-85,808	-0,143	0,032
-344,650	-72,741	0,088	-0,023
-343,635	121,547	0,055	0,050
-342,620	800,000	0,092	0,197
-341,606	-127,094	-0,204	0,021
-340,591	-179,920	-0,054	-0,001
-339,577	335,030	0,044	0,062
-338,562	620,696	-0,059	-0,109
-337,548	674,305	-0,022	0,041
-336,533	528,570	0,047	-0,080
-335,518	-44,169	-0,064	0,023
-334,504	213,236	0,036	0,041
-333,489	3,405	0,127	-0,067
-332,475	-200,000	-0,019	-0,131
-331,460	265,161	-0,044	-0,056
-330,445	13,027	0,043	0,024
-329,431	-39,479	-0,116	-0,044
-328,416	146,856	0,035	0,034
-327,402	-200,000	0,013	-0,135
-326,387	171,058	-0,015	0,016
-325,372	-200,000	0,023	0,169
-324,358	-115,474	-0,212	-0,029
-323,343	263,203	0,047	-0,059
-322,329	800,000	0,028	0,070
-321,314	-200,000	0,002	0,049
-320,299	-46,410	0,148	0,052
-319,285	800,000	-0,064	0,172
-318,270	275,291	-0,026	0,033
-317,256	-139,904	0,068	-0,005
-316,241	-148,489	-0,088	0,005
-315,226	-200,000	0,013	0,114
-314,212	235,119	0,044	0,053
-313,197	89,165	0,017	0,014
-312,183	-200,000	-0,023	0,077
-311,168	379,610	-0,063	0,094
-310,153	455,950	-0,016	0,026
-309,139	228,128	-0,073	-0,086
-308,124	709,036	-0,036	0,069
-307,110	-26,694	0,072	0,030
-306,095	51,667	-0,153	0,105
-305,080	-200,000	-0,003	-0,125
-304,066	-119,612	0,051	-0,006
-303,051	705,333	0,022	0,042
-302,037	34,182	-0,196	0,123
-301,022	-200,000	-0,003	0,037
-300,008	118,062	-0,001	0,000
-298,993	51,115	0,070	0,048
-297,978	100,193	-0,048	0,041
-296,964	-119,493	-0,130	0,016
-295,949	142,718	-0,087	0,083
-294,935	-200,000	0,038	-0,137
-293,920	-200,000	-0,028	-0,121
-292,905	157,972	-0,037	-0,037
-291,891	-11,662	-0,095	-0,045
-290,876	-200,000	-0,004	-0,030
-289,862	356,023	0,060	-0,086
-288,847	273,045	0,085	-0,109
-287,832	0,892	0,063	0,033
-286,818	-200,000	0,001	0,038
-285,803	20,575	-0,090	-0,052
-284,789	43,253	-0,075	0,049
-283,774	-200,000	-0,001	0,061
-282,759	167,168	-0,095	0,098
-281,745	745,095	0,054	-0,106
-280,730	191,833	0,044	-0,048
-279,716	92,798	-0,032	-0,026
-278,701	702,524	-0,010	0,020
-277,686	489,858	0,080	0,133
-276,672	-99,368	0,028	-0,005
-275,657	30,698	0,111	0,068
-274,643	-109,291	0,082	-0,012
-273,628	154,662	-0,137	-0,136
-272,613	628,927	-0,080	-0,146
-271,599	263,648	0,107	0,134
-270,584	-93,391	0,191	-0,038
-269,570	361,225	-0,070	0,101
-268,555	-16,545	0,069	-0,031
-267,540	494,724	-0,075	-0,125
-266,526	-200,000	0,005	-0,070
-265,511	516,617	0,084	0,143
-264,497	-200,000	-0,009	0,047
-263,482	249,873	0,071	0,088
-262,467	-200,000	0,009	0,140
-261,453	77,603	-0,080	-0,061
-260,438	215,283	-0,042	0,048
-259,424	-152,561	0,057	-0,003
-258,409	-200,000	-0,032	0,164
-257,395	-136,731	0,044	0,004
-256,380	-55,813	-0,066	-0,021
-255,365	-74,900	0,135	-0,035
-254,351	-17,243	-0,072	-0,032
-253,336	-200,000	0,003	-0,069
-252,322	-200,000	0,005	-0,185
-251,307	5,571	-0,073	-0,039
-250,292	-135,686	0,136	0,011
-249,278	800,000	0,021	0,063
-248,263	-200,000	-0,020	0,172
-247,249	89,234	0,038	0,031
-246,234	407,283	-0,114	-0,174
-245,219	130,282	-0,170	-0,157
-244,205	245,402	-0,062	-0,075
-243,190	-87,772	0,130	0,028
-242,176	143,563	-0,052	0,050
-241,161	-3,559	-0,047	0,023
-240,146	-200,000	0,006	0,085
-239,132	-4,365	-0,021	0,010
-238,117	-200,000	-0,000	-0,063
-237,103	-168,478	-0,117	0,003
-236,088	72,667	-0,135	-0,102
-235,073	-200,000	0,004	-0,015
-234,059	-200,000	0,018	-0,097
-233,044	-200,000	-0,014	0,175
-232,030	-70,272	-0,081	0,022
-231,015	-40,201	-0,042	-0,016
-230,000	339,838	-0,027	-0,038
-228,986	-32,158	0,018	0,007
-227,971	-200,000	-0,010	-0,056
-226,957	152,258	-0,017	0,017
-225,942	110,083	-0,083	0,072
-224,927	697,108	0,027	0,052
-223,913	-36,671	-0,070	-0,027
-222,898	800,000	-0,011	-0,033
-221,884	384,350	-0,046	0,068
-220,869	-200,000	-0,015	0,063
-219,855	-200,000	-0,007	-0,028
-218,840	184,898	0,016	0,017
-217,825	-140,939	-0,074	-0,005
-216,811	-61,774	-0,071	-0,021
-215,796	33,003	-0,051	-0,032
-214,782	-15,971	0,128	-0,058
-213,767	47,207	0,033	0,022
-212,752	-73,704	-0,064	0,017
-211,738	343,530	-0,050	-0,071
-210,723	-200,000	0,016	0,058
-209,709	-117,726	-0,114	0,015
-208,694	800,000	0,036	-0,110
-207,679	364,235	-0,052	-0,076
-206,665	-200,000	0,008	0,070
-205,650	-131,583	0,086	0,008
-204,636	-87,965	-0,105	-0,023
-203,621	-28,619	-0,059	-0,024
-202,606	-200,000	0,009	0,065
-201,592	-200,000	-0,006	0,063
-200,577	130,530	0,012	-0,011
-199,563	-200,000	-0,003	0,137
-198,548	-149,716	-0,010	0,001
-197,533	122,454	0,060	0,054
-196,519	332,497	-0,028	0,038
-195,504	800,000	-0,044	-0,119
-194,490	-40,157	0,088	0,033
-193,475	800,000	-0,039	-0,084
-192,460	564,648	0,022	0,038
-191,446	460,990	-0,049	0,080
-190,431	157,986	0,044	0,043
-189,417	800,000	-0,025	0,058
-188,402	-24,480	-0,054	0,023
-187,387	-200,000	-0,015	-0,072
-186,373	122,318	0,104	-0,094
-185,358	-179,343	-0,134	0,002
-184,344	800,000	-0,017	0,047
-183,329	-49,857	-0,063	-0,022
-182,315	-200,000	-0,017	-0,084
-181,300	237,497	-0,049	-0,058
-180,285	267,042	-0,102	-0,129
-179,271	-200,000	0,025	-0,097
-178,256	44,613	-0,023	-0,015
-177,242	-56,752	-0,061	-0,019
-176,227	800,000	-0,036	0,108
-175,212	-200,000	0,008	-0,094
-174,198	479,820	0,022	-0,036
-173,183	-12,309	-0,102	0,048
-172,169	-200,000	0,021	-0,098
-171,154	147,392	-0,108	-0,105
-170,139	488,080	-0,029	-0,048
-169,125	800,000	-0,032	0,066
-168,110	-35,396	0,032	-0,012
-167,096	16,391	0,105	0,059
-166,081	31,223	-0,109	0,067
-165,066	-62,846	0,133	-0,039
-164,052	342,530	0,061	-0,087
-163,037	116,153	0,029	-0,026
-162,023	-10,274	0,107	-0,051
-161,008	-200,000	-0,011	-0,136
-159,993	-200,000	-0,011	-0,080
-158,979	-200,000	-0,007	-0,026
-157,964	713,097	-0,040	-0,077
-156,950	-70,024	-0,105	-0,029
-155,935	-14,907	0,044	0,020
-154,920	175,216	0,055	-0,058
-153,906	-200,000	0,048	-0,157
-152,891	800,000	0,018	0,036
-151,877	800,000	-0,037	0,077
-150,862	36,241	-0,053	0,034
-149,847	238,497	-0,036	-0,043
-148,833	-45,588	-0,134	-0,047
-147,818	-76,189	0,141	-0,035
-146,804	800,000	0,033	-0,072
-145,789	189,406	-0,034	0,036
-144,775	-200,000	-0,031	-0,136
-143,760	37,550	0,095	-0,060
-142,745	-200,000	-0,001	-0,007
-141,731	33,876	-0,067	-0,042
-140,716	-160,762	-0,071	-0,003
-139,702	64,664	0,064	-0,047
-138,687	800,000	0,028	0,072
-137,672	162,180	-0,111	-0,112
-136,658	650,540	-0,053	0,097
-135,643	16,391	0,063	-0,035
-134,629	-196,815	-0,158	-0,001
-133,614	178,292	0,020	0,021
-132,599	-33,785	0,017	0,007
-131,585	800,000	0,026	0,068
-130,570	537,050	-0,014	0,025
-129,556	333,998	-0,075	0,105
-128,541	-200,000	0,040	0,129
-127,526	-74,615	0,118	-0,030
-126,512	159,882	0,074	-0,074
-125,497	611,282	0,037	0,066
-124,483	-200,000	-0,022	0,107
-123,468	334,725	-0,044	-0,061
-122,453	-168,426	0,181	0,005
-121,439	-200,000	0,003	0,019
-120,424	-83,134	-0,144	0,033
-119,410	800,000	0,029	0,086
