DTS Sentinel unit serial number:	SN410029Multiplexer serial number:	ORYXHardware model number:	OX2-SRSoftware version number:	ORYX F/W v4,00 Oryx Data Collector v3.7.2.0data status	okinstallation	B6 Nyhavnadifferential loss correction	single-endedforward channel	channel 2reverse channel	N/Adate	2023/12/10time	14:50:08forward acquisition time	300,00reverse acquisition time	0,00gamma	499,1914k internal	0,3122k external	0,3122temperature offset calibration	1,0000default loss term (dB/km)	0,3820temperature slope calibration	1,0000multiplexer offset coefficient	1,0000multiplexer slope coefficient	1,0000fibre end	0,00T internal ref (°C)	22,56T ext. ref 1 (°C)	6,02T ext. ref 2 (°C)	6,01length (m)	temperature (°C)	Stokes	anti-Stokes-744,400	183,574	0,066	0,073
-743,385	35,072	-0,133	0,086
-742,371	-200,000	0,023	-0,094
-741,356	-200,000	-0,024	0,222
-740,342	24,744	0,047	-0,029
-739,327	82,048	-0,245	0,198
-738,312	321,455	-0,042	-0,060
-737,298	-114,923	-0,260	0,036
-736,283	282,440	0,025	0,034
-735,269	-51,513	-0,264	0,091
-734,254	300,375	-0,066	-0,091
-733,239	-59,808	-0,352	-0,112
-732,225	235,409	0,147	-0,182
-731,210	-200,000	-0,021	0,079
-730,196	-80,749	0,116	-0,029
-729,181	3,074	-0,089	0,048
-728,167	224,331	-0,021	0,025
-727,152	-200,000	0,038	-0,139
-726,137	-46,448	-0,099	-0,036
-725,123	-200,000	0,011	-0,183
-724,108	98,165	-0,130	-0,111
-723,094	800,000	0,046	-0,116
-722,079	71,695	-0,201	-0,155
-721,064	-200,000	-0,043	-0,221
-720,050	188,380	-0,056	-0,063
-719,035	-107,331	-0,100	-0,016
-718,021	-99,092	-0,054	0,010
-717,006	-75,009	0,041	-0,011
-715,991	-200,000	0,008	0,103
-714,977	218,647	-0,083	-0,099
-713,962	289,041	-0,062	-0,084
-712,948	-18,642	0,060	0,028
-711,933	-34,063	-0,109	0,044
-710,918	800,000	0,012	-0,034
-709,904	59,009	0,033	0,024
-708,889	-35,481	-0,114	-0,046
-707,875	-200,000	-0,032	-0,295
-706,860	97,732	0,022	0,019
-705,845	24,069	0,040	-0,025
-704,831	133,272	0,036	-0,035
-703,816	170,213	-0,058	-0,062
-702,802	133,497	-0,124	-0,120
-701,787	-163,525	0,019	-0,001
-700,772	119,233	-0,102	-0,094
-699,758	-200,000	-0,002	-0,061
-698,743	-200,000	-0,017	0,188
-697,729	-142,031	0,071	-0,005
-696,714	800,000	0,059	-0,159
-695,699	-121,362	-0,098	-0,012
-694,685	-200,000	0,001	-0,097
-693,670	-8,538	-0,060	-0,030
-692,656	-18,793	0,122	-0,056
-691,641	586,636	0,044	-0,080
-690,627	795,406	0,022	0,045
-689,612	368,143	0,036	0,055
-688,597	28,887	0,057	0,036
-687,583	-133,737	-0,095	0,009
-686,568	-200,000	-0,044	-0,174
-685,554	127,081	0,093	-0,088
-684,539	162,500	0,057	0,060
-683,524	-81,560	0,117	0,028
-682,510	800,000	-0,024	-0,060
-681,495	800,000	0,019	0,049
-680,481	-200,000	0,019	-0,093
-679,466	-118,491	-0,141	-0,018
-678,451	242,075	0,049	-0,061
-677,437	44,504	-0,060	-0,041
-676,422	227,874	-0,053	0,064
-675,408	170,845	0,005	0,005
-674,393	-200,000	0,012	-0,068
-673,378	78,218	-0,123	-0,097
-672,364	-200,000	0,043	0,158
-671,349	178,092	0,091	0,098
-670,335	515,846	0,077	-0,134
-669,320	-67,533	-0,121	0,035
-668,305	800,000	-0,021	0,061
-667,291	-140,723	-0,110	-0,008
-666,276	576,803	-0,108	-0,197
-665,262	175,498	-0,114	-0,122
-664,247	149,825	-0,046	-0,046
-663,232	-106,323	-0,106	0,017
-662,218	-99,545	-0,044	0,008
-661,203	-200,000	-0,020	0,082
-660,189	-187,075	0,185	0,002
-659,174	-200,000	-0,011	-0,060
-658,159	-97,862	-0,060	0,011
-657,145	-22,460	-0,023	-0,010
-656,130	800,000	0,049	-0,137
-655,116	-200,000	0,001	0,094
-654,101	459,594	0,015	-0,025
-653,086	-41,911	-0,206	-0,078
-652,072	161,513	0,050	0,052
-651,057	-117,691	0,044	0,006
-650,043	-121,285	-0,100	0,012
-649,028	-62,773	-0,094	-0,029
-648,014	175,766	0,044	-0,048
-646,999	256,378	0,033	-0,042
-645,984	-62,728	-0,037	-0,011
-644,970	-200,000	0,012	-0,098
-643,955	-200,000	-0,012	-0,064
-642,941	156,412	-0,062	-0,063
-641,926	82,724	-0,025	0,020
-640,911	-6,269	0,054	0,027
-639,897	-24,959	0,101	0,044
-638,882	366,295	-0,083	0,124
-637,868	30,108	0,064	0,040
-636,853	-112,264	-0,154	0,023
-635,838	-138,581	-0,235	-0,019
-634,824	118,267	0,048	-0,044
-633,809	800,000	-0,039	0,086
-632,795	800,000	0,032	-0,075
-631,780	-200,000	0,009	0,029
-630,765	-116,270	0,125	-0,017
-629,751	-124,221	-0,165	-0,019
-628,736	111,964	-0,052	-0,047
-627,722	4,453	0,109	-0,059
-626,707	123,140	0,073	-0,068
-625,692	-74,252	0,091	-0,024
-624,678	-76,686	-0,082	-0,021
-623,663	-200,000	-0,014	-0,048
-622,649	287,592	-0,061	-0,082
-621,634	189,055	-0,087	-0,097
-620,619	800,000	-0,062	-0,138
-619,605	54,918	0,200	0,143
-618,590	-68,471	-0,093	0,027
-617,576	-200,000	0,008	-0,074
-616,561	19,679	-0,144	0,086
-615,546	56,726	-0,041	-0,029
-614,532	800,000	-0,066	-0,167
-613,517	-200,000	0,005	0,060
-612,503	800,000	-0,024	-0,055
-611,488	-139,195	0,103	0,008
-610,474	1,035	-0,028	-0,015
-609,459	-86,015	0,093	-0,021
-608,444	0,646	-0,061	-0,033
-607,430	-162,916	-0,058	-0,002
-606,415	17,391	-0,083	-0,049
-605,401	115,308	0,024	-0,021
-604,386	-200,000	-0,025	-0,082
-603,371	-32,111	0,070	0,029
-602,357	587,167	-0,012	-0,022
-601,342	-200,000	0,036	-0,243
-600,328	800,000	0,031	-0,086
-599,313	58,006	0,018	0,013
-598,298	131,512	0,087	-0,083
-597,284	800,000	0,026	-0,069
-596,269	800,000	-0,049	0,116
-595,255	-11,455	0,105	0,051
-594,240	297,550	-0,101	-0,138
-593,225	-60,455	-0,050	0,016
-592,211	359,292	-0,093	-0,139
-591,196	-128,981	0,091	0,009
-590,182	800,000	-0,040	-0,093
-589,167	-200,000	0,012	-0,127
-588,152	-200,000	-0,011	0,118
-587,138	152,840	0,098	-0,099
-586,123	-200,000	0,027	0,114
-585,109	-25,908	-0,121	0,052
-584,094	-75,885	-0,029	0,008
-583,079	222,607	0,016	-0,019
-582,065	-141,410	0,095	-0,007
-581,050	-200,000	0,033	0,174
-580,036	-44,582	0,078	-0,029
-579,021	-200,000	-0,001	-0,194
-578,006	800,000	-0,015	0,046
-576,992	385,717	0,012	-0,018
-575,977	35,320	0,132	-0,086
-574,963	-200,000	0,014	-0,128
-573,948	126,152	-0,054	0,050
-572,934	-119,473	0,082	-0,010
-571,919	-200,000	-0,005	-0,036
-570,904	-115,256	-0,116	-0,016
-569,890	-130,277	-0,165	0,016
-568,875	-31,214	0,051	0,021
-567,861	294,163	0,028	0,038
-566,846	50,747	-0,080	-0,056
-565,831	232,901	-0,028	-0,034
-564,817	-200,000	-0,021	-0,091
-563,802	592,149	-0,064	-0,117
-562,788	7,031	-0,104	0,057
-561,773	-200,000	-0,008	0,095
-560,758	800,000	-0,010	-0,023
-559,744	-46,727	-0,096	0,035
-558,729	-98,301	0,150	-0,028
-557,715	10,656	0,095	-0,053
-556,700	63,716	-0,096	-0,071
-555,685	-97,879	-0,073	-0,014
-554,671	-45,147	0,081	0,030
-553,656	-200,000	0,015	0,063
-552,642	-200,000	-0,008	0,027
-551,627	800,000	-0,021	0,053
-550,612	419,432	0,070	0,112
-549,598	-160,878	-0,087	0,003
-548,583	-134,174	0,053	-0,005
-547,569	-74,346	-0,017	0,004
-546,554	21,015	0,199	-0,119
-545,539	-200,000	0,017	-0,142
-544,525	101,928	-0,077	-0,066
-543,510	243,619	0,040	0,050
-542,496	-200,000	0,010	-0,074
-541,481	250,807	0,018	-0,023
-540,466	-60,835	-0,072	-0,022
-539,452	800,000	0,061	0,163
-538,437	97,378	-0,143	0,121
-537,423	218,995	-0,081	0,096
-536,408	-20,045	0,007	-0,003
-535,393	46,021	-0,110	0,075
-534,379	132,327	-0,096	-0,092
-533,364	91,066	0,075	0,062
-532,350	-103,813	-0,049	-0,008
-531,335	184,865	-0,074	0,081
-530,321	73,422	-0,054	-0,042
-529,306	267,939	-0,045	-0,059
-528,291	713,525	-0,027	0,053
-527,277	142,775	-0,167	-0,164
-526,262	140,793	-0,117	-0,114
-525,248	800,000	-0,058	-0,156
-524,233	58,822	0,024	0,017
-523,218	89,763	-0,038	-0,031
-522,204	255,367	0,029	0,036
-521,189	-53,671	-0,138	-0,046
-520,175	-73,626	0,064	-0,017
-519,160	-200,000	0,017	0,081
-518,145	800,000	-0,007	-0,020
-517,131	-200,000	-0,008	0,068
-516,116	274,717	0,059	0,077
-515,102	-127,780	-0,111	0,012
-514,087	22,804	-0,191	-0,115
-513,072	-89,274	0,064	0,014
-512,058	-99,511	-0,063	0,012
-511,043	-66,229	-0,139	-0,040
-510,029	-13,559	-0,038	-0,018
-509,014	-63,590	0,166	-0,050
-507,999	-200,000	-0,004	0,059
-506,985	-28,622	-0,068	-0,029
-505,970	431,854	-0,088	-0,141
-504,956	-200,000	-0,009	-0,132
-503,941	-47,125	0,018	0,006
-502,926	-200,000	0,005	0,021
-501,912	-200,000	-0,007	0,110
-500,897	-200,000	0,024	0,095
-499,883	260,551	0,051	0,065
-498,868	800,000	0,026	0,070
-497,853	-23,680	-0,140	-0,062
-496,839	218,877	0,070	-0,083
-495,824	-41,663	-0,034	0,013
-494,810	306,990	-0,045	0,063
-493,795	-174,864	-0,037	0,001
-492,781	-200,000	0,014	0,060
-491,766	-117,257	-0,170	0,023
-490,751	95,338	0,081	0,068
-489,737	-82,151	-0,197	0,047
-488,722	262,403	0,079	0,102
-487,708	64,049	0,070	-0,052
-486,693	1,357	0,109	-0,058
-485,678	128,980	0,044	-0,041
-484,664	28,992	-0,085	0,053
-483,649	356,343	-0,011	-0,017
-482,635	-200,000	-0,002	-0,059
-481,620	-53,708	0,117	0,039
-480,605	151,712	-0,062	0,063
-479,591	-200,000	-0,017	0,110
-478,576	-8,019	0,135	-0,067
-477,562	446,806	0,064	-0,105
-476,547	-75,342	-0,034	-0,009
-475,532	800,000	-0,058	0,120
-474,518	-200,000	-0,001	0,056
-473,503	800,000	0,014	0,045
-472,489	98,521	-0,068	0,058
-471,474	-49,962	-0,073	-0,025
-470,459	-200,000	-0,006	0,078
-469,445	-0,434	0,071	-0,037
-468,430	-20,901	0,028	0,013
-467,416	282,867	-0,045	-0,060
-466,401	146,084	0,094	-0,093
-465,386	7,632	-0,068	-0,037
-464,372	252,219	0,050	0,063
-463,357	223,863	-0,078	0,093
-462,343	800,000	0,025	-0,058
-461,328	-200,000	-0,002	-0,011
-460,313	143,075	0,051	0,050
-459,299	800,000	-0,022	0,068
-458,284	-106,312	0,160	-0,026
-457,270	-72,181	0,050	-0,014
-456,255	5,816	-0,130	-0,071
-455,241	327,753	-0,047	-0,066
-454,226	-200,000	0,001	0,123
-453,211	-105,736	0,063	-0,010
-452,197	258,555	-0,011	-0,014
-451,182	-200,000	0,012	0,146
-450,168	250,737	0,111	0,140
-449,153	-162,589	0,100	0,004
-448,138	86,355	-0,097	0,078
-447,124	-141,765	-0,088	0,006
-446,109	-20,754	-0,104	-0,047
-445,095	-40,524	0,081	0,031
-444,080	800,000	0,040	0,108
-443,065	271,338	0,083	0,108
-442,051	154,718	-0,097	-0,098
-441,036	-16,505	-0,070	0,033
-440,022	564,771	-0,031	-0,056
-439,007	36,289	-0,122	0,079
-437,992	74,201	-0,128	0,099
-436,978	-200,000	0,014	0,056
-435,963	288,172	0,030	0,040
-434,949	440,124	0,114	0,185
-433,934	-132,100	-0,018	-0,002
-432,919	-112,610	0,076	-0,011
-431,905	-200,000	-0,025	-0,169
-430,890	-17,015	-0,094	0,044
-429,876	800,000	-0,046	-0,105
-428,861	433,403	-0,036	-0,058
-427,846	800,000	0,040	-0,114
-426,832	800,000	-0,043	-0,107
-425,817	469,177	-0,052	-0,087
-424,803	-71,876	-0,040	0,011
-423,788	64,862	0,039	-0,029
-422,773	75,572	0,060	0,046
-421,759	-200,000	-0,000	0,045
-420,744	33,231	0,131	0,084
-419,730	-200,000	-0,010	-0,108
-418,715	59,100	-0,082	0,059
-417,701	-173,488	-0,115	-0,002
-416,686	-200,000	0,012	0,046
-415,671	-200,000	0,003	-0,059
-414,657	-200,000	-0,005	-0,067
-413,642	-100,654	-0,085	0,015
-412,628	-200,000	0,015	0,062
-411,613	150,631	0,061	-0,061
-410,598	-200,000	0,012	-0,139
-409,584	199,064	0,047	-0,053
-408,569	458,070	0,043	0,070
-407,555	800,000	0,034	0,077
-406,540	-200,000	-0,004	-0,016
-405,525	-19,916	-0,089	-0,040
-404,511	-200,000	-0,010	0,061
-403,496	-13,194	0,058	-0,028
-402,482	800,000	0,031	0,079
-401,467	179,409	0,074	0,079
-400,452	550,262	-0,046	0,082
-399,438	44,900	0,057	-0,038
-398,423	-200,000	-0,002	-0,025
-397,409	-200,000	-0,012	-0,104
-396,394	-28,301	0,133	0,056
-395,379	-50,745	0,073	0,025
-394,365	800,000	0,040	0,086
-393,350	-68,427	-0,070	0,020
-392,336	61,235	0,075	0,055
-391,321	800,000	0,005	-0,013
-390,306	-63,467	-0,047	-0,014
-389,292	-200,000	-0,002	-0,067
-388,277	-200,000	0,017	0,068
-387,263	-28,876	0,032	-0,014
-386,248	-200,000	0,015	-0,066
-385,233	-200,000	-0,007	-0,048
-384,219	-1,060	0,075	0,039
-383,204	-200,000	0,007	-0,034
-382,190	800,000	-0,068	-0,176
-381,175	-200,000	-0,025	-0,102
-380,160	314,588	-0,022	0,030
-379,146	318,499	0,045	0,063
-378,131	-200,000	0,012	-0,044
-377,117	-48,629	0,069	-0,024
-376,102	19,928	-0,098	0,058
-375,088	31,989	-0,068	-0,043
-374,073	178,857	0,066	-0,071
-373,058	-200,000	0,006	-0,060
-372,044	-125,618	0,114	-0,013
-371,029	700,715	0,037	0,072
-370,015	-4,886	0,097	-0,049
-369,000	323,485	0,112	-0,158
-367,985	800,000	-0,021	-0,048
-366,971	212,327	0,046	-0,053
-365,956	-74,126	0,058	-0,015
-364,942	-63,048	0,193	-0,058
-363,927	76,359	-0,051	0,039
-362,912	146,669	-0,021	0,020
-361,898	-65,437	-0,118	-0,035
-360,883	-200,000	-0,022	0,094
-359,869	147,821	-0,098	0,098
-358,854	8,545	-0,052	-0,028
-357,839	320,698	0,091	0,128
-356,825	-66,949	0,091	0,026
-355,810	800,000	0,015	-0,047
-354,796	800,000	0,021	0,059
-353,781	334,807	0,039	0,055
-352,766	109,800	0,026	-0,023
-351,752	209,382	-0,037	-0,042
-350,737	210,950	-0,019	-0,022
-349,723	7,759	-0,026	0,014
-348,708	78,158	0,082	-0,064
-347,693	-122,640	-0,145	-0,017
-346,679	-200,000	-0,016	0,053
-345,664	-165,159	0,031	0,001
-344,650	800,000	0,019	0,059
-343,635	-200,000	-0,002	0,067
-342,620	543,830	0,048	-0,084
-341,606	-200,000	0,018	-0,081
-340,591	-200,000	0,009	-0,032
-339,577	515,036	-0,018	0,031
-338,562	78,569	-0,040	-0,031
-337,548	176,542	-0,028	-0,030
-336,533	-12,323	0,058	0,028
-335,518	19,148	0,054	-0,032
-334,504	193,297	0,041	0,046
-333,489	19,098	-0,049	-0,029
-332,475	418,921	-0,044	-0,069
-331,460	-138,693	-0,081	0,006
-330,445	156,348	-0,079	0,080
-329,431	58,606	0,076	-0,054
-328,416	-53,759	0,037	-0,012
-327,402	772,470	-0,012	-0,025
-326,387	-200,000	-0,020	-0,070
-325,372	342,012	-0,013	-0,018
-324,358	53,481	-0,023	0,016
-323,343	615,961	0,069	-0,127
-322,329	-125,093	-0,163	0,018
-321,314	-110,712	-0,073	-0,011
-320,299	270,201	-0,030	-0,038
-319,285	-200,000	-0,005	-0,159
-318,270	-34,592	0,043	-0,017
-317,256	800,000	-0,042	-0,120
-316,241	-41,051	-0,100	0,038
-315,226	14,852	-0,072	-0,041
-314,212	-68,182	-0,055	0,016
-313,197	119,609	0,124	0,113
-312,183	-110,574	0,069	-0,010
-311,168	-29,664	-0,156	-0,065
-310,153	-171,337	-0,143	0,003
-309,139	800,000	0,054	-0,113
-308,124	800,000	0,073	0,178
-307,110	-71,854	0,084	0,023
-306,095	-66,462	0,027	-0,008
-305,080	-80,812	0,166	0,040
-304,066	269,716	0,113	0,146
-303,051	110,082	-0,063	-0,056
-302,037	336,486	0,094	-0,134
-301,022	-176,174	0,029	0,001
-300,008	541,917	0,062	0,109
-298,993	199,280	0,030	0,034
-297,978	212,416	0,068	0,079
-296,964	-200,000	0,011	0,147
-295,949	138,974	0,121	0,116
-294,935	-200,000	-0,029	-0,147
-293,920	16,310	-0,091	0,052
-292,905	800,000	0,018	0,051
-291,891	-200,000	-0,002	0,016
-290,876	-60,312	-0,105	0,033
-289,862	52,552	-0,113	-0,079
-288,847	258,294	0,055	-0,070
-287,832	86,101	0,072	0,058
-286,818	792,527	0,061	-0,124
-285,803	800,000	-0,075	0,160
-284,789	92,229	0,111	0,091
-283,774	-56,895	0,105	-0,034
-282,759	445,282	-0,029	0,046
-281,745	-48,503	0,098	-0,034
-280,730	176,449	-0,023	0,024
-279,716	108,086	-0,014	-0,012
-278,701	-200,000	-0,020	0,092
-277,686	21,309	0,148	0,088
-276,672	85,480	0,102	0,082
-275,657	17,130	0,052	-0,030
-274,643	-175,621	0,056	0,001
-273,628	-200,000	0,018	0,075
-272,613	-200,000	0,016	-0,138
-271,599	800,000	-0,038	-0,080
-270,584	-51,576	-0,043	-0,014
-269,570	800,000	-0,034	0,090
-268,555	-113,582	0,100	-0,014
-267,540	-200,000	-0,032	-0,117
-266,526	36,942	-0,057	-0,037
-265,511	-200,000	0,014	-0,098
-264,497	-138,093	0,206	-0,017
-263,482	800,000	0,015	0,045
-262,467	800,000	0,051	0,116
-261,453	-200,000	-0,038	0,132
-260,438	-16,168	0,055	0,025
-259,424	13,585	0,138	0,078
-258,409	800,000	0,043	0,109
-257,395	-4,491	0,087	0,044
-256,380	101,256	0,109	0,093
-255,365	-200,000	-0,001	-0,060
-254,351	248,136	0,046	0,057
-253,336	-159,634	0,046	-0,002
-252,322	71,629	-0,111	-0,084
-251,307	-28,856	0,076	-0,032
-250,292	111,807	-0,062	-0,055
-249,278	-7,524	0,067	-0,033
-248,263	82,553	0,134	0,106
-247,249	277,680	-0,068	0,089
-246,234	43,664	-0,120	0,080
-245,219	-200,000	0,017	0,146
-244,205	75,221	-0,105	0,081
-243,190	59,520	0,142	-0,102
-242,176	-143,243	0,111	-0,008
-241,161	-200,000	0,003	-0,024
-240,146	84,142	-0,033	0,026
-239,132	-102,331	-0,065	-0,011
-238,117	-51,229	-0,131	0,044
-237,103	377,372	-0,021	-0,031
-236,088	-72,502	-0,042	-0,011
-235,073	278,539	0,046	0,060
-234,059	601,904	-0,034	-0,062
-233,044	-200,000	-0,025	-0,176
-232,030	-158,103	-0,095	0,004
-231,015	67,126	-0,099	-0,074
-230,000	-76,490	-0,075	0,019
-228,986	-68,209	0,028	0,008
-227,971	-84,675	0,047	-0,011
-226,957	337,899	0,052	0,074
-225,942	459,505	0,049	0,080
-224,927	800,000	0,024	0,051
-223,913	-158,297	0,119	0,005
-222,898	684,875	-0,040	-0,077
-221,884	629,580	-0,057	-0,105
-220,869	-162,612	0,132	-0,005
-219,855	-24,191	0,087	-0,038
-218,840	286,774	0,040	0,053
-217,825	-200,000	0,035	0,131
-216,811	11,960	-0,046	0,026
-215,796	-68,267	0,078	-0,022
-214,782	-200,000	0,015	-0,076
-213,767	800,000	-0,016	-0,043
-212,752	-200,000	-0,017	0,076
-211,738	-97,673	0,075	0,014
-210,723	800,000	-0,047	0,143
-209,709	-143,721	-0,044	-0,003
-208,694	12,775	-0,039	0,022
-207,679	449,567	-0,072	0,116
-206,665	-200,000	-0,023	0,092
-205,650	800,000	-0,012	-0,026
-204,636	-26,594	0,114	0,048
-203,621	-200,000	-0,029	0,098
-202,606	143,717	-0,046	0,045
-201,592	471,160	-0,045	-0,075
-200,577	-200,000	0,022	0,083
-199,563	-11,660	-0,069	0,033
-198,548	-200,000	0,040	0,181
-197,533	158,000	0,091	0,092
-196,519	-20,034	0,051	-0,023
-195,504	59,771	-0,101	-0,073
-194,490	-16,607	-0,094	-0,043
-193,475	800,000	0,035	-0,098
-192,460	-200,000	-0,012	0,042
-191,446	-68,952	0,113	-0,032
-190,431	-93,746	-0,029	-0,006
-189,417	-200,000	0,016	0,142
-188,402	186,443	-0,054	0,059
-187,387	-70,453	-0,063	0,017
-186,373	-200,000	-0,014	-0,112
-185,358	63,410	-0,025	-0,018
-184,344	-48,695	0,081	0,028
-183,329	-88,372	-0,051	-0,011
-182,315	-200,000	0,012	0,047
-181,300	262,541	-0,123	-0,156
-180,285	-37,263	-0,166	0,064
-179,271	-115,464	-0,025	0,003
-178,256	-85,509	0,085	0,019
-177,242	800,000	-0,031	0,084
-176,227	-52,502	-0,126	0,042
-175,212	-142,614	-0,048	-0,003
-174,198	-21,257	0,073	-0,032
-173,183	57,647	0,055	0,039
-172,169	-200,000	0,007	0,024
-171,154	-152,195	-0,081	-0,004
-170,139	-200,000	0,020	0,132
-169,125	81,673	0,025	-0,020
-168,110	-32,176	0,149	0,060
-167,096	128,505	-0,052	0,048
-166,081	-200,000	-0,007	-0,032
-165,066	-200,000	0,009	-0,033
-164,052	-200,000	0,002	0,028
-163,037	25,488	-0,055	-0,033
-162,023	19,402	0,116	0,067
-161,008	-111,934	0,139	0,020
-159,993	2,446	0,127	0,067
-158,979	165,307	-0,073	0,075
-157,964	96,632	-0,113	-0,094
-156,950	141,913	0,018	-0,017
-155,935	800,000	0,024	-0,056
-154,920	41,857	0,066	0,043
-153,906	-27,581	0,072	0,030
-152,891	-200,000	-0,005	-0,085
-151,877	247,636	-0,102	0,126
-150,862	-200,000	-0,005	-0,146
-149,847	800,000	0,027	-0,067
-148,833	-200,000	0,002	-0,097
-147,818	96,937	-0,091	0,076
-146,804	63,599	-0,089	-0,065
-145,789	-200,000	0,000	0,016
-144,775	26,319	-0,080	0,048
-143,760	800,000	-0,032	0,096
-142,745	-200,000	0,046	0,179
-141,731	-200,000	0,001	0,160
-140,716	-200,000	0,007	-0,114
-139,702	800,000	0,022	0,067
-138,687	-19,979	0,050	0,022
-137,672	-200,000	0,014	0,081
-136,658	645,299	-0,060	-0,112
-135,643	621,292	-0,024	-0,044
-134,629	800,000	0,032	-0,079
-133,614	-9,177	-0,052	0,025
-132,599	-9,079	0,080	-0,039
-131,585	67,270	0,067	0,050
-130,570	-35,777	-0,060	-0,024
-129,556	-200,000	0,003	0,037
-128,541	226,304	-0,013	0,016
-127,526	-200,000	0,031	0,106
-126,512	-70,399	0,068	0,019
-125,497	-198,807	0,081	0,000
-124,483	198,777	-0,030	0,034
-123,468	468,597	0,129	0,211
-122,453	-200,000	-0,004	0,057
-121,439	689,562	0,022	0,042
-120,424	609,109	0,099	-0,181
-119,410	480,357	0,047	-0,078
