DTS Sentinel unit serial number:	SN410029Multiplexer serial number:	ORYXHardware model number:	OX2-SRSoftware version number:	ORYX F/W v4,00 Oryx Data Collector v3.7.2.0data status	okinstallation	B6 Nyhavnadifferential loss correction	single-endedforward channel	channel 2reverse channel	N/Adate	2023/12/10time	14:05:08forward acquisition time	300,00reverse acquisition time	0,00gamma	499,1914k internal	0,3122k external	0,3122temperature offset calibration	1,0000default loss term (dB/km)	0,3820temperature slope calibration	1,0000multiplexer offset coefficient	1,0000multiplexer slope coefficient	1,0000fibre end	0,00T internal ref (°C)	22,69T ext. ref 1 (°C)	6,19T ext. ref 2 (°C)	6,21length (m)	temperature (°C)	Stokes	anti-Stokes-744,400	800,000	0,029	-0,077
-743,385	-45,667	-0,328	0,120
-742,371	92,711	0,048	-0,040
-741,356	-8,263	-0,280	0,140
-740,342	-94,534	-0,066	-0,013
-739,327	-165,269	-0,154	-0,005
-738,312	74,841	0,134	-0,105
-737,298	-121,873	-0,255	-0,031
-736,283	271,254	0,067	0,089
-735,269	-59,498	-0,267	0,085
-734,254	-200,000	0,006	-0,043
-733,239	-136,345	-0,425	-0,036
-732,225	-113,583	0,085	0,012
-731,210	213,561	0,059	0,069
-730,196	-200,000	-0,027	0,096
-729,181	800,000	-0,025	0,070
-728,167	800,000	0,035	-0,082
-727,152	-83,832	-0,074	0,017
-726,137	-168,142	0,085	0,002
-725,123	-181,432	-0,144	-0,002
-724,108	-129,670	-0,055	-0,006
-723,094	800,000	-0,052	-0,168
-722,079	-0,155	-0,155	-0,082
-721,064	-48,481	-0,106	-0,038
-720,050	2,200	-0,063	-0,034
-719,035	-104,475	-0,141	-0,024
-718,021	-200,000	0,017	-0,126
-717,006	-86,174	-0,085	0,019
-715,991	67,383	0,036	0,028
-714,977	-77,523	-0,056	0,014
-713,962	180,626	0,094	-0,103
-712,948	46,331	-0,018	-0,013
-711,933	-200,000	0,010	-0,111
-710,918	71,684	-0,042	-0,032
-709,904	-123,511	0,129	0,015
-708,889	69,908	-0,168	-0,129
-707,875	236,817	-0,077	-0,095
-706,860	-200,000	0,009	0,133
-705,845	-143,738	0,133	-0,009
-704,831	-200,000	-0,013	0,080
-703,816	66,588	-0,084	-0,063
-702,802	-200,000	0,006	-0,184
-701,787	-200,000	0,012	-0,087
-700,772	-19,568	-0,064	-0,029
-699,758	-102,399	-0,102	-0,018
-698,743	189,953	0,054	-0,060
-697,729	-200,000	0,041	-0,155
-696,714	63,748	-0,077	-0,058
-695,699	-200,000	-0,017	-0,092
-694,685	1,892	-0,045	-0,024
-693,670	-55,478	0,050	0,017
-692,656	-200,000	-0,021	0,084
-691,641	-200,000	0,014	0,060
-690,627	-93,212	-0,092	0,019
-689,612	116,030	0,107	0,097
-688,597	-200,000	0,016	0,060
-687,583	182,154	-0,031	-0,034
-686,568	800,000	-0,043	-0,129
-685,554	58,264	0,029	0,021
-684,539	269,135	-0,017	-0,023
-683,524	49,094	0,123	-0,086
-682,510	-200,000	-0,000	0,065
-681,495	-200,000	-0,017	-0,128
-680,481	67,038	-0,083	-0,063
-679,466	800,000	0,051	-0,135
-678,451	85,104	-0,041	-0,034
-677,437	-175,920	0,018	0,000
-676,422	-83,882	-0,051	0,012
-675,408	411,096	-0,030	0,048
-674,393	158,193	0,080	0,082
-673,378	800,000	0,063	-0,189
-672,364	-66,648	-0,188	0,055
-671,349	58,015	-0,066	0,048
-670,335	97,450	-0,081	-0,069
-669,320	111,105	-0,094	0,085
-668,305	-158,963	-0,169	0,007
-667,291	800,000	0,018	-0,048
-666,276	102,809	-0,080	0,069
-665,262	-82,534	-0,097	0,023
-664,247	-200,000	0,013	0,103
-663,232	23,179	-0,110	0,067
-662,218	800,000	-0,033	0,108
-661,203	46,076	0,139	0,095
-660,189	-44,883	-0,173	0,064
-659,174	-37,789	-0,129	-0,051
-658,159	-152,381	0,025	-0,001
-657,145	328,054	-0,093	-0,133
-656,130	34,484	-0,084	-0,054
-655,116	-200,000	0,009	-0,127
-654,101	-200,000	-0,013	0,054
-653,086	-35,673	-0,142	0,057
-652,072	18,396	-0,152	-0,090
-651,057	-200,000	0,003	-0,050
-650,043	-200,000	-0,097	0,000
-649,028	164,834	-0,061	-0,064
-648,014	8,233	0,051	0,029
-646,999	618,588	0,075	0,140
-645,984	800,000	-0,002	0,007
-644,970	800,000	0,027	0,068
-643,955	32,824	-0,041	-0,026
-642,941	800,000	0,027	-0,080
-641,926	-200,000	0,012	0,127
-640,911	-200,000	0,023	0,089
-639,897	-200,000	0,005	-0,079
-638,882	694,154	0,028	0,055
-637,868	-37,780	-0,100	-0,039
-636,853	-99,318	-0,207	-0,038
-635,838	800,000	0,009	-0,027
-634,824	800,000	-0,002	0,004
-633,809	800,000	-0,031	-0,075
-632,795	-200,000	-0,003	-0,020
-631,780	-200,000	-0,036	0,153
-630,765	113,813	-0,044	0,039
-629,751	560,860	0,011	0,020
-628,736	333,079	-0,068	-0,098
-627,722	478,018	-0,059	-0,100
-626,707	144,035	0,017	-0,017
-625,692	307,896	0,061	0,084
-624,678	95,916	-0,150	0,127
-623,663	528,426	0,066	-0,116
-622,649	-92,561	0,087	-0,018
-621,634	118,986	-0,082	-0,075
-620,619	-200,000	-0,016	-0,089
-619,605	225,905	0,015	0,018
-618,590	68,645	-0,072	0,055
-617,576	7,771	-0,125	-0,069
-616,561	41,064	-0,105	-0,070
-615,546	112,822	-0,066	-0,059
-614,532	38,262	-0,061	-0,040
-613,517	-37,327	-0,149	-0,059
-612,503	-58,766	-0,061	0,019
-611,488	-200,000	-0,033	0,191
-610,474	229,201	-0,097	0,117
-609,459	74,169	0,092	0,071
-608,444	-200,000	-0,000	0,032
-607,430	270,260	-0,067	-0,087
-606,415	-200,000	-0,022	-0,113
-605,401	-30,864	0,028	0,012
-604,386	-82,519	0,108	0,026
-603,371	-77,598	0,053	0,013
-602,357	170,767	0,050	-0,053
-601,342	-175,082	0,021	0,000
-600,328	1,588	-0,156	0,083
-599,313	-114,619	-0,095	0,013
-598,298	-2,552	0,193	-0,100
-597,284	-19,388	-0,061	-0,028
-596,269	531,177	-0,038	0,067
-595,255	180,665	0,044	0,048
-594,240	214,562	-0,020	0,023
-593,225	-200,000	0,004	0,038
-592,211	-200,000	0,019	-0,190
-591,196	-200,000	0,007	-0,143
-590,182	-125,037	0,124	0,014
-589,167	-121,258	-0,014	0,002
-588,152	800,000	0,077	-0,170
-587,138	-194,547	-0,094	0,001
-586,123	-53,991	-0,040	-0,014
-585,109	-200,000	0,003	-0,023
-584,094	354,492	0,062	-0,091
-583,079	800,000	0,005	-0,013
-582,065	-32,569	0,134	0,055
-581,050	-120,071	0,053	-0,007
-580,036	138,648	-0,134	-0,130
-579,021	57,403	-0,134	-0,097
-578,006	-200,000	-0,016	-0,142
-576,992	800,000	-0,042	0,131
-575,977	212,688	-0,036	-0,042
-574,963	-57,579	-0,081	0,026
-573,948	46,686	-0,040	0,028
-572,934	-139,977	0,053	0,004
-571,919	-200,000	0,004	-0,238
-570,904	279,212	-0,078	-0,103
-569,890	800,000	-0,045	-0,123
-568,875	800,000	-0,096	0,259
-567,861	41,119	-0,011	0,007
-566,846	147,470	-0,038	0,038
-565,831	-58,771	0,074	0,024
-564,817	414,958	0,024	-0,037
-563,802	412,174	-0,072	-0,114
-562,788	1,903	0,130	0,069
-561,773	345,492	-0,066	0,097
-560,758	800,000	0,029	0,081
-559,744	-61,432	0,102	0,032
-558,729	76,117	0,097	0,076
-557,715	35,878	-0,123	0,080
-556,700	42,794	-0,075	-0,050
-555,685	-23,035	-0,144	-0,064
-554,671	800,000	0,057	-0,164
-553,656	759,796	-0,092	-0,185
-552,642	151,785	-0,095	0,096
-551,627	-200,000	-0,008	0,057
-550,612	302,037	0,067	0,092
-549,598	-200,000	0,002	-0,133
-548,583	-120,510	-0,150	-0,019
-547,569	-200,000	-0,000	0,004
-546,554	-200,000	0,005	-0,095
-545,539	143,461	0,053	0,052
-544,525	-140,498	-0,051	0,004
-543,510	-200,000	0,015	-0,122
-542,496	721,780	0,036	-0,072
-541,481	-200,000	0,004	0,019
-540,466	12,728	0,121	0,069
-539,452	101,779	0,056	0,048
-538,437	-68,778	-0,073	-0,021
-537,423	375,535	-0,073	0,110
-536,408	-200,000	-0,003	0,194
-535,393	-98,443	-0,007	-0,001
-534,379	112,877	0,047	-0,042
-533,364	-200,000	0,005	-0,196
-532,350	63,198	0,087	-0,065
-531,335	114,226	0,088	-0,079
-530,321	-200,000	-0,002	0,023
-529,306	-146,262	0,084	-0,005
-528,291	344,793	0,043	-0,063
-527,277	784,295	-0,063	-0,129
-526,262	67,873	-0,035	0,026
-525,248	286,534	-0,062	0,082
-524,233	-200,000	0,017	0,084
-523,218	424,915	-0,035	-0,055
-522,204	441,756	-0,076	0,123
-521,189	132,936	-0,023	0,022
-520,175	-200,000	-0,006	0,057
-519,160	-200,000	0,022	-0,076
-518,145	243,539	0,067	0,084
-517,131	-200,000	0,024	0,104
-516,116	637,068	-0,047	0,088
-515,102	800,000	-0,050	-0,130
-514,087	291,375	-0,025	-0,034
-513,072	452,231	-0,054	-0,088
-512,058	-114,222	-0,128	0,018
-511,043	800,000	0,034	0,092
-510,029	439,999	0,044	-0,072
-509,014	77,362	0,056	0,044
-507,999	108,552	-0,133	-0,117
-506,985	-200,000	-0,015	-0,182
-505,970	-67,321	-0,019	0,006
-504,956	280,927	0,063	-0,083
-503,941	103,685	0,134	-0,117
-502,926	-66,132	0,069	-0,020
-501,912	-200,000	-0,044	-0,145
-500,897	649,840	-0,032	0,061
-499,883	8,246	-0,176	-0,097
-498,868	747,185	0,026	0,052
-497,853	-150,425	0,064	-0,004
-496,839	158,906	-0,086	0,089
-495,824	-17,005	-0,065	0,030
-494,810	-176,538	0,109	-0,002
-493,795	-200,000	0,023	0,139
-492,781	-8,704	0,014	0,007
-491,766	800,000	-0,012	0,035
-490,751	202,194	0,033	-0,038
-489,737	106,512	-0,032	0,028
-488,722	-200,000	-0,012	0,145
-487,708	-75,541	0,159	0,041
-486,693	340,942	0,069	0,099
-485,678	719,216	-0,024	-0,047
-484,664	-200,000	-0,002	0,011
-483,649	-200,000	0,030	-0,185
-482,635	-200,000	-0,028	-0,112
-481,620	262,419	-0,034	0,043
-480,605	-200,000	-0,010	-0,129
-479,591	-18,147	0,037	-0,017
-478,576	10,593	-0,093	0,052
-477,562	685,111	0,041	-0,079
-476,547	-124,532	-0,071	0,008
-475,532	-146,388	-0,077	0,005
-474,518	-200,000	-0,017	0,120
-473,503	382,044	0,074	0,113
-472,489	147,731	0,041	0,041
-471,474	800,000	0,023	0,062
-470,459	-200,000	0,016	0,077
-469,445	383,461	0,043	-0,066
-468,430	800,000	-0,022	-0,071
-467,416	-200,000	0,028	-0,110
-466,401	-200,000	-0,023	-0,116
-465,386	-66,918	0,102	-0,029
-464,372	-50,647	0,147	0,051
-463,357	-133,687	-0,087	-0,008
-462,343	400,959	0,048	-0,074
-461,328	800,000	-0,018	-0,047
-460,313	-131,326	0,108	-0,010
-459,299	-73,159	0,075	-0,020
-458,284	-83,177	0,070	-0,016
-457,270	-200,000	0,004	0,034
-456,255	-89,654	-0,066	-0,014
-455,241	-80,245	-0,117	0,029
-454,226	-47,655	0,046	-0,016
-453,211	-200,000	-0,010	0,170
-452,197	279,296	0,017	0,023
-451,182	800,000	0,068	0,148
-450,168	-52,815	0,071	0,024
-449,153	-57,324	0,142	-0,046
-448,138	-64,445	-0,139	-0,041
-447,124	180,611	0,102	0,111
-446,109	800,000	0,049	0,143
-445,095	-46,226	0,039	0,014
-444,080	-151,128	0,068	0,004
-443,065	-122,247	-0,142	0,017
-442,051	-65,305	-0,158	-0,047
-441,036	223,156	0,072	-0,086
-440,022	800,000	-0,047	-0,132
-439,007	-200,000	-0,003	0,076
-437,992	12,930	0,080	0,046
-436,978	631,794	0,030	0,057
-435,963	-154,045	-0,045	-0,002
-434,949	333,185	-0,080	-0,115
-433,934	215,582	-0,055	-0,064
-432,919	-200,000	0,010	0,036
-431,905	205,182	-0,059	-0,068
-430,890	-200,000	-0,000	-0,114
-429,876	-106,457	0,192	0,031
-428,861	-12,647	0,038	-0,018
-427,846	-12,245	-0,114	-0,055
-426,832	800,000	-0,009	-0,023
-425,817	482,923	0,037	-0,062
-424,803	-132,260	0,144	-0,013
-423,788	-200,000	-0,020	0,088
-422,773	29,748	0,038	0,024
-421,759	62,650	0,163	0,120
-420,744	23,475	0,027	0,017
-419,730	800,000	-0,043	0,088
-418,715	107,048	-0,034	0,030
-417,701	402,741	0,048	0,074
-416,686	-96,170	-0,108	0,021
-415,671	331,045	0,095	0,135
-414,657	95,374	0,059	0,050
-413,642	-113,166	0,068	-0,010
-412,628	-22,834	-0,069	-0,031
-411,613	75,170	-0,038	-0,029
-410,598	-82,848	-0,127	0,030
-409,584	-112,421	0,028	0,004
-408,569	800,000	-0,033	-0,103
-407,555	-127,429	-0,025	-0,003
-406,540	551,679	0,031	-0,055
-405,525	392,882	0,053	0,081
-404,511	98,778	0,010	-0,009
-403,496	800,000	-0,043	-0,131
-402,482	4,072	-0,123	-0,066
-401,467	182,251	0,089	-0,097
-400,452	410,474	0,036	0,056
-399,438	-200,000	-0,030	-0,123
-398,423	800,000	-0,019	0,052
-397,409	30,505	-0,089	-0,056
-396,394	255,047	0,050	-0,063
-395,379	139,842	-0,014	-0,014
-394,365	58,791	0,165	0,119
-393,350	269,372	0,016	-0,021
-392,336	63,314	-0,083	0,061
-391,321	-29,818	0,040	-0,017
-390,306	728,615	0,030	-0,059
-389,292	-200,000	0,042	-0,170
-388,277	-200,000	0,003	0,025
-387,263	139,052	0,118	0,114
-386,248	329,017	0,015	0,022
-385,233	800,000	0,019	-0,046
-384,219	-121,025	-0,048	-0,006
-383,204	125,477	0,072	0,067
-382,190	-78,703	-0,146	-0,036
-381,175	224,288	0,109	-0,130
-380,160	-78,080	0,111	-0,028
-379,146	222,526	-0,079	0,094
-378,131	-80,176	-0,088	-0,021
-377,117	800,000	0,049	0,101
-376,102	33,002	0,042	-0,027
-375,088	-200,000	0,031	0,100
-374,073	-93,806	-0,182	-0,036
-373,058	-4,247	0,034	0,017
-372,044	479,942	-0,040	0,067
-371,029	40,855	-0,049	0,033
-370,015	193,653	0,095	0,106
-369,000	800,000	-0,063	-0,130
-367,985	68,575	0,050	-0,038
-366,971	63,852	-0,024	0,018
-365,956	6,300	0,178	0,097
-364,942	242,488	0,113	0,139
-363,927	-112,686	0,053	-0,008
-362,912	-34,446	-0,156	0,063
-361,898	50,441	-0,058	-0,040
-360,883	771,622	0,078	-0,157
-359,869	63,764	0,016	-0,012
-358,854	327,454	-0,057	-0,081
-357,839	800,000	0,031	0,082
-356,825	250,567	-0,064	0,080
-355,810	800,000	-0,059	-0,122
-354,796	80,836	-0,060	0,047
-353,781	-159,138	-0,194	-0,008
-352,766	-200,000	0,004	0,063
-351,752	136,854	-0,021	0,020
-350,737	-86,235	-0,034	0,008
-349,723	-78,266	0,085	-0,021
-348,708	40,802	-0,073	-0,048
-347,693	232,782	-0,075	-0,090
-346,679	9,718	-0,081	-0,045
-345,664	-200,000	-0,025	-0,106
-344,650	-23,949	0,100	-0,044
-343,635	498,564	0,026	0,043
-342,620	800,000	-0,032	-0,099
-341,606	-125,969	-0,116	0,013
-340,591	-155,521	-0,077	0,004
-339,577	51,369	0,018	-0,012
-338,562	-200,000	-0,059	-0,226
-337,548	800,000	0,056	-0,126
-336,533	-47,716	-0,095	0,034
-335,518	800,000	-0,035	-0,101
-334,504	-200,000	-0,010	-0,038
-333,489	177,612	-0,089	-0,096
-332,475	-200,000	0,012	-0,049
-331,460	130,764	0,039	-0,037
-330,445	800,000	-0,010	-0,023
-329,431	309,807	-0,061	-0,084
-328,416	5,602	0,050	-0,027
-327,402	-200,000	-0,010	-0,114
-326,387	43,334	-0,009	-0,006
-325,372	800,000	-0,037	-0,106
-324,358	-200,000	0,002	0,009
-323,343	34,230	-0,153	-0,098
-322,329	800,000	-0,049	0,153
-321,314	-109,712	0,069	-0,010
-320,299	47,855	0,081	-0,055
-319,285	307,798	0,042	-0,057
-318,270	64,203	0,016	0,012
-317,256	0,094	-0,075	-0,039
-316,241	287,221	-0,066	-0,088
-315,226	183,156	0,061	-0,066
-314,212	334,854	-0,046	0,066
-313,197	-48,063	0,073	-0,026
-312,183	-83,969	-0,045	-0,010
-311,168	34,045	-0,205	-0,131
-310,153	-23,427	-0,096	0,042
-309,139	-100,705	0,100	-0,018
-308,124	3,295	0,065	0,034
-307,110	-200,000	-0,005	-0,066
-306,095	-200,000	0,035	0,128
-305,080	800,000	-0,054	0,155
-304,066	-158,704	-0,067	-0,003
-303,051	-79,357	-0,091	-0,022
-302,037	-39,417	0,053	0,020
-301,022	524,800	0,041	0,071
-300,008	398,079	-0,049	0,075
-298,993	-121,084	0,144	0,017
-297,978	60,711	-0,128	0,093
-296,964	-179,127	0,047	0,001
-295,949	79,260	0,035	0,027
-294,935	53,598	-0,088	-0,062
-293,920	178,234	-0,051	-0,054
-292,905	-200,000	0,016	-0,088
-291,891	143,545	-0,068	-0,067
-290,876	278,583	-0,018	-0,023
-289,862	81,684	-0,015	0,012
-288,847	-200,000	0,009	0,089
-287,832	-25,914	-0,049	-0,021
-286,818	77,047	0,059	-0,046
-285,803	-200,000	0,001	-0,017
-284,789	162,509	0,072	0,074
-283,774	413,486	0,101	0,158
-282,759	-143,368	0,141	0,010
-281,745	579,581	0,050	0,090
-280,730	-100,049	-0,073	0,013
-279,716	-109,305	0,047	-0,007
-278,701	221,395	0,074	-0,087
-277,686	-80,803	-0,139	-0,033
-276,672	-200,000	0,008	-0,029
-275,657	800,000	0,069	-0,158
-274,643	800,000	0,033	-0,073
-273,628	84,769	-0,107	0,086
-272,613	141,704	0,037	0,036
-271,599	78,695	0,104	0,081
-270,584	532,750	-0,042	-0,073
-269,570	-45,662	-0,031	-0,011
-268,555	149,762	-0,099	0,098
-267,540	713,369	0,022	-0,044
-266,526	-34,741	0,110	-0,044
-265,511	572,891	0,060	-0,107
-264,497	287,564	-0,095	0,126
-263,482	197,870	0,060	0,067
-262,467	800,000	0,041	0,089
-261,453	122,955	0,169	0,155
-260,438	522,388	-0,022	-0,038
-259,424	-200,000	-0,000	-0,069
-258,409	200,366	0,118	0,132
-257,395	90,345	-0,079	0,065
-256,380	550,248	-0,055	-0,097
-255,365	-200,000	0,030	0,105
-254,351	-117,529	0,031	-0,004
-253,336	74,125	-0,086	-0,066
-252,322	-111,988	-0,119	0,017
-251,307	633,746	0,006	0,011
-250,292	-200,000	-0,003	-0,093
-249,278	800,000	0,048	0,102
-248,263	800,000	0,033	0,074
-247,249	-200,000	-0,010	0,100
-246,234	49,112	-0,068	0,047
-245,219	167,567	-0,142	-0,148
-244,205	-6,739	0,066	0,033
-243,190	49,086	-0,016	-0,011
-242,176	-135,067	0,101	0,009
-241,161	229,320	0,060	0,072
-240,146	-81,708	0,126	0,030
-239,132	800,000	0,056	0,144
-238,117	800,000	-0,028	0,078
-237,103	-44,680	-0,082	0,030
-236,088	-200,000	-0,018	0,084
-235,073	284,127	0,016	0,022
-234,059	66,062	0,041	0,030
-233,044	-128,036	-0,026	-0,003
-232,030	174,107	-0,036	-0,039
-231,015	263,383	-0,066	0,084
-230,000	403,942	0,013	-0,020
-228,986	-87,389	0,088	-0,019
-227,971	334,364	0,040	0,056
-226,957	-140,843	0,124	0,009
-225,942	-171,864	0,097	0,002
-224,927	180,669	0,048	0,052
-223,913	-200,000	0,007	-0,038
-222,898	-200,000	0,016	-0,088
-221,884	800,000	0,052	-0,153
-220,869	-4,897	0,107	0,054
-219,855	800,000	0,025	-0,073
-218,840	-200,000	-0,037	0,175
-217,825	800,000	0,078	0,185
-216,811	7,686	0,029	-0,016
-215,796	307,096	0,145	0,198
-214,782	409,793	0,007	0,011
-213,767	2,981	0,041	0,021
-212,752	-200,000	-0,006	0,105
-211,738	219,169	-0,080	0,093
-210,723	-47,140	-0,096	-0,034
-209,709	416,379	-0,051	0,080
-208,694	577,192	-0,047	0,084
-207,679	231,717	0,095	0,114
-206,665	81,995	0,079	-0,062
-205,650	800,000	-0,025	-0,062
-204,636	-27,553	0,127	-0,054
-203,621	-56,600	-0,072	-0,023
-202,606	172,256	-0,085	-0,089
-201,592	-200,000	0,009	-0,108
-200,577	77,826	-0,016	0,012
-199,563	-200,000	0,002	-0,028
-198,548	-200,000	0,003	0,091
-197,533	-82,123	-0,096	0,023
-196,519	-200,000	-0,028	0,121
-195,504	230,242	-0,040	0,048
-194,490	-200,000	0,004	0,075
-193,475	-200,000	0,008	0,039
-192,460	231,454	0,044	-0,053
-191,446	-200,000	-0,018	0,181
-190,431	92,211	0,064	0,053
-189,417	18,723	0,139	0,081
-188,402	204,597	-0,047	0,054
-187,387	-22,561	-0,117	0,052
-186,373	-109,350	-0,147	-0,023
-185,358	552,371	-0,045	0,079
-184,344	240,823	-0,049	-0,059
-183,329	-118,394	0,127	-0,016
-182,315	-200,000	-0,016	-0,103
-181,300	185,237	-0,052	0,056
-180,285	251,063	0,046	-0,057
-179,271	-53,694	0,070	-0,023
-178,256	-200,000	-0,013	0,167
-177,242	-18,300	-0,066	-0,030
-176,227	-200,000	-0,001	0,062
-175,212	394,984	0,024	0,037
-174,198	-200,000	0,012	0,125
-173,183	-92,223	0,124	0,025
-172,169	4,201	-0,056	-0,030
-171,154	-22,986	0,209	-0,091
-170,139	-200,000	0,012	0,177
-169,125	-95,270	0,088	0,017
-168,110	220,178	0,051	0,060
-167,096	-149,085	0,109	0,006
-166,081	153,819	-0,033	-0,033
-165,066	61,833	-0,120	-0,087
-164,052	41,679	0,040	-0,027
-163,037	154,653	0,041	-0,041
-162,023	-154,208	0,130	0,006
-161,008	-51,073	0,037	0,013
-159,993	-35,951	0,039	-0,015
-158,979	-47,219	-0,069	-0,025
-157,964	29,184	0,115	0,071
-156,950	25,867	-0,017	0,010
-155,935	-5,553	0,135	0,067
-154,920	-173,404	0,050	0,001
-153,906	89,501	0,019	-0,015
-152,891	107,919	-0,064	-0,056
-151,877	800,000	0,041	-0,087
-150,862	-200,000	-0,014	-0,073
-149,847	-99,112	-0,115	-0,021
-148,833	-200,000	-0,003	-0,064
-147,818	800,000	0,040	-0,086
-146,804	-200,000	-0,030	0,105
-145,789	436,565	0,061	0,097
-144,775	13,353	-0,108	-0,061
-143,760	98,429	-0,040	0,034
-142,745	-200,000	-0,028	-0,096
-141,731	-152,425	-0,108	0,006
-140,716	203,660	0,047	0,053
-139,702	-29,822	0,125	-0,052
-138,687	800,000	0,027	-0,063
-137,672	1,326	-0,102	-0,053
-136,658	-50,239	-0,032	0,011
-135,643	800,000	0,056	0,143
-134,629	247,828	-0,049	-0,061
-133,614	-81,489	0,160	0,038
-132,599	-103,186	0,032	-0,006
-131,585	-24,829	-0,129	-0,055
-130,570	-100,035	0,094	0,017
-129,556	271,830	-0,011	0,014
-128,541	-172,969	-0,049	0,001
-127,526	-92,113	0,078	0,016
-126,512	-89,390	-0,030	-0,006
-125,497	-200,000	0,025	0,089
-124,483	161,636	-0,090	-0,092
-123,468	-71,089	0,175	-0,048
-122,453	486,528	-0,024	-0,040
-121,439	800,000	-0,020	-0,064
-120,424	-11,101	-0,079	0,038
-119,410	156,493	0,071	-0,071
-118,395	-200,000	0,024	0,093
