DTS Sentinel unit serial number:	SN410029Multiplexer serial number:	ORYXHardware model number:	OX2-SRSoftware version number:	ORYX F/W v4,00 Oryx Data Collector v3.7.2.0data status	okinstallation	B6 Nyhavnadifferential loss correction	single-endedforward channel	channel 2reverse channel	N/Adate	2023/12/08time	20:35:08forward acquisition time	300,00reverse acquisition time	0,00gamma	499,1914k internal	0,3158k external	0,3158temperature offset calibration	1,0000default loss term (dB/km)	0,3820temperature slope calibration	1,0000multiplexer offset coefficient	1,0000multiplexer slope coefficient	1,0000fibre end	0,00T internal ref (°C)	15,20T ext. ref 1 (°C)	-1,39T ext. ref 2 (°C)	-1,39length (m)	temperature (°C)	Stokes	anti-Stokes-744,400	-200,000	-0,004	0,134
-743,385	-39,785	-0,280	0,107
-742,371	-72,159	0,128	0,035
-741,356	-134,125	-0,401	-0,036
-740,342	800,000	0,041	0,132
-739,327	-11,013	-0,316	-0,153
-738,312	16,169	0,080	0,046
-737,298	-122,390	-0,309	-0,037
-736,283	-200,000	-0,016	0,061
-735,269	-138,283	-0,263	0,021
-734,254	-200,000	0,013	0,089
-733,239	-88,514	-0,567	-0,123
-732,225	-105,810	0,259	0,043
-731,210	-36,420	0,109	0,043
-730,196	800,000	-0,059	-0,160
-729,181	38,845	-0,062	0,041
-728,167	-200,000	0,019	0,171
-727,152	-200,000	-0,005	0,061
-726,137	-112,664	-0,093	-0,013
-725,123	255,318	-0,062	-0,078
-724,108	-128,700	-0,057	-0,006
-723,094	800,000	-0,045	-0,120
-722,079	-139,942	-0,164	-0,013
-721,064	141,724	-0,051	0,050
-720,050	309,597	-0,054	0,074
-719,035	461,061	0,075	-0,124
-718,021	-98,915	-0,056	-0,010
-717,006	-87,184	-0,074	-0,016
-715,991	664,531	-0,088	-0,169
-714,977	76,059	-0,100	-0,078
-713,962	341,268	-0,036	0,052
-712,948	36,672	0,058	0,038
-711,933	-132,684	-0,060	0,006
-710,918	111,163	-0,097	-0,086
-709,904	-200,000	0,007	-0,112
-708,889	46,723	0,038	-0,026
-707,875	-200,000	-0,033	-0,123
-706,860	323,042	-0,050	0,070
-705,845	286,524	-0,042	0,056
-704,831	-200,000	-0,008	0,031
-703,816	-62,853	-0,095	-0,029
-702,802	800,000	-0,029	-0,081
-701,787	-200,000	-0,014	-0,119
-700,772	-137,765	0,045	-0,004
-699,758	75,779	0,092	-0,072
-698,743	92,722	-0,043	-0,036
-697,729	691,542	-0,045	-0,087
-696,714	-200,000	-0,028	-0,119
-695,699	172,087	-0,011	0,011
-694,685	800,000	0,057	-0,129
-693,670	800,000	-0,030	0,073
-692,656	41,907	0,089	0,059
-691,641	800,000	0,008	0,022
-690,627	-172,956	0,080	0,002
-689,612	-200,000	-0,019	-0,180
-688,597	8,003	0,019	0,010
-687,583	4,829	-0,090	-0,048
-686,568	-21,020	0,080	0,036
-685,554	106,007	-0,038	-0,033
-684,539	-144,986	0,073	-0,005
-683,524	-38,168	-0,057	-0,022
-682,510	-200,000	-0,012	0,059
-681,495	682,448	-0,056	-0,107
-680,481	158,329	-0,076	-0,078
-679,466	-200,000	-0,010	-0,135
-678,451	-143,391	-0,052	0,004
-677,437	-200,000	0,029	0,095
-676,422	800,000	-0,054	-0,132
-675,408	23,101	-0,081	-0,049
-674,393	44,499	0,066	-0,044
-673,378	-154,711	-0,109	-0,005
-672,364	641,140	0,006	0,010
-671,349	25,303	0,094	-0,058
-670,335	-200,000	0,023	0,134
-669,320	157,434	-0,021	-0,022
-668,305	41,656	0,095	0,063
-667,291	354,210	-0,119	0,174
-666,276	800,000	-0,039	0,098
-665,262	61,424	-0,071	-0,052
-664,247	-58,437	0,121	-0,038
-663,232	-30,147	-0,130	-0,054
-662,218	-50,393	0,056	-0,019
-661,203	800,000	-0,070	0,171
-660,189	313,507	-0,040	0,055
-659,174	-200,000	-0,006	0,078
-658,159	37,895	0,039	0,026
-657,145	-109,457	-0,096	0,015
-656,130	307,100	0,099	-0,136
-655,116	505,866	0,045	0,077
-654,101	-47,654	0,169	-0,060
-653,086	-200,000	0,045	-0,174
-652,072	-200,000	-0,041	-0,179
-651,057	-79,432	-0,142	-0,035
-650,043	178,671	0,053	0,056
-649,028	146,039	-0,026	-0,026
-648,014	-190,593	0,161	0,001
-646,999	20,105	-0,117	0,069
-645,984	34,641	0,033	-0,021
-644,970	238,982	-0,048	-0,059
-643,955	-133,789	0,087	-0,008
-642,941	231,342	0,031	-0,038
-641,926	-45,378	0,037	0,014
-640,911	-49,966	0,100	-0,035
-639,897	800,000	0,012	0,039
-638,882	294,067	-0,070	0,093
-637,868	-200,000	-0,040	-0,159
-636,853	-130,744	-0,171	-0,017
-635,838	3,590	-0,071	0,038
-634,824	800,000	-0,033	0,091
-633,809	712,035	0,021	0,041
-632,795	17,553	0,045	-0,026
-631,780	52,229	0,024	-0,016
-630,765	-1,039	-0,071	-0,037
-629,751	-200,000	0,004	-0,065
-628,736	-200,000	0,013	0,053
-627,722	-37,086	-0,064	-0,025
-626,707	-200,000	-0,008	0,106
-625,692	176,233	0,149	0,159
-624,678	623,736	0,045	0,084
-623,663	-34,176	-0,052	0,021
-622,649	-2,908	-0,060	-0,030
-621,634	-200,000	-0,009	0,076
-620,619	410,363	0,021	-0,032
-619,605	800,000	-0,021	-0,064
-618,590	800,000	0,048	-0,098
-617,576	800,000	0,077	0,199
-616,561	-32,310	0,169	0,069
-615,546	108,339	-0,125	0,109
-614,532	-152,659	-0,156	-0,008
-613,517	711,823	0,031	0,061
-612,503	403,996	0,061	-0,095
-611,488	-31,261	0,061	0,025
-610,474	218,240	0,094	0,110
-609,459	-170,908	-0,104	-0,003
-608,444	800,000	-0,010	0,028
-607,430	-125,571	0,139	-0,015
-606,415	800,000	0,041	-0,128
-605,401	-200,000	0,002	0,032
-604,386	800,000	-0,045	0,098
-603,371	-76,273	0,107	0,027
-602,357	-67,184	-0,101	-0,029
-601,342	800,000	0,061	-0,175
-600,328	14,562	0,084	0,048
-599,313	-53,581	-0,018	-0,006
-598,298	316,247	0,023	-0,033
-597,284	-103,254	0,061	-0,010
-596,269	459,011	-0,047	0,077
-595,255	-47,233	0,076	-0,027
-594,240	-200,000	0,009	0,094
-593,225	672,302	-0,032	-0,061
-592,211	35,097	-0,035	-0,023
-591,196	164,438	-0,019	-0,019
-590,182	-80,740	0,135	0,033
-589,167	-83,534	-0,046	-0,011
-588,152	-200,000	-0,009	0,063
-587,138	800,000	0,040	0,120
-586,123	-200,000	-0,024	-0,162
-585,109	-200,000	0,011	-0,261
-584,094	543,248	-0,138	-0,242
-583,079	138,994	0,126	-0,122
-582,065	632,130	0,032	-0,059
-581,050	-200,000	-0,004	-0,047
-580,036	355,659	-0,072	-0,106
-579,021	-65,791	0,077	0,022
-578,006	416,635	-0,107	-0,168
-576,992	117,067	-0,049	-0,044
-575,977	-200,000	0,002	-0,091
-574,963	800,000	0,027	0,076
-573,948	-101,131	-0,082	-0,015
-572,934	-69,978	-0,022	-0,006
-571,919	157,554	-0,108	-0,110
-570,904	800,000	-0,040	0,086
-569,890	-6,883	-0,140	0,069
-568,875	-200,000	0,021	0,133
-567,861	-200,000	-0,028	0,162
-566,846	800,000	0,034	0,109
-565,831	-200,000	-0,011	-0,079
-564,817	81,347	-0,039	-0,031
-563,802	651,621	0,075	-0,142
-562,788	800,000	-0,033	-0,097
-561,773	-200,000	0,153	-0,000
-560,758	232,793	-0,086	-0,103
-559,744	-22,255	0,101	0,045
-558,729	17,542	-0,162	-0,094
-557,715	559,385	0,006	0,010
-556,700	-62,351	0,109	-0,033
-555,685	-200,000	-0,011	-0,144
-554,671	258,417	0,057	0,073
-553,656	-15,940	-0,039	-0,018
-552,642	70,264	-0,074	-0,056
-551,627	800,000	0,058	0,171
-550,612	-9,461	-0,051	0,025
-549,598	265,813	-0,002	0,003
-548,583	-200,000	-0,020	0,074
-547,569	-146,368	-0,020	-0,001
-546,554	126,526	0,032	-0,030
-545,539	-200,000	0,026	0,092
-544,525	-200,000	-0,024	0,081
-543,510	311,737	0,063	-0,087
-542,496	536,529	-0,068	-0,119
-541,481	24,280	-0,087	-0,052
-540,466	580,865	-0,032	0,057
-539,452	659,400	0,075	0,142
-538,437	-28,252	0,056	-0,023
-537,423	-200,000	-0,018	0,121
-536,408	-34,715	0,092	-0,036
-535,393	550,998	-0,068	0,120
-534,379	-20,384	-0,081	-0,036
-533,364	21,784	-0,095	-0,056
-532,350	-200,000	0,029	0,094
-531,335	631,224	0,057	-0,105
-530,321	-200,000	-0,006	-0,033
-529,306	-71,816	-0,135	-0,037
-528,291	148,594	0,072	0,071
-527,277	-200,000	-0,011	-0,059
-526,262	366,763	-0,048	0,071
-525,248	-176,515	0,109	0,002
-524,233	62,398	0,116	0,084
-523,218	170,849	0,048	0,050
-522,204	-80,847	0,080	0,019
-521,189	-200,000	-0,028	-0,191
-520,175	120,236	-0,050	0,046
-519,160	-113,486	-0,048	-0,007
-518,145	200,201	0,074	0,083
-517,131	657,942	-0,017	0,033
-516,116	453,349	0,058	0,095
-515,102	-198,635	-0,065	-0,000
-514,087	-200,000	0,011	-0,225
-513,072	800,000	0,024	-0,072
-512,058	-200,000	0,021	-0,072
-511,043	180,556	0,071	-0,076
-510,029	800,000	-0,009	0,026
-509,014	127,163	0,045	-0,042
-507,999	83,131	0,068	-0,054
-506,985	800,000	-0,037	0,086
-505,970	375,117	-0,017	0,026
-504,956	340,271	0,044	-0,063
-503,941	-30,561	0,136	-0,056
-502,926	375,691	-0,024	-0,035
-501,912	114,462	0,092	-0,081
-500,897	-61,293	-0,020	-0,006
-499,883	-200,000	-0,030	-0,120
-498,868	-134,792	0,018	0,002
-497,853	800,000	0,009	-0,024
-496,839	800,000	-0,008	0,022
-495,824	-200,000	0,018	0,079
-494,810	-200,000	0,017	0,072
-493,795	-200,000	-0,034	-0,120
-492,781	42,703	-0,076	-0,050
-491,766	124,332	-0,177	-0,162
-490,751	-43,761	-0,155	-0,057
-489,737	-73,252	-0,120	0,032
-488,722	464,977	0,045	0,074
-487,708	16,465	-0,028	0,016
-486,693	163,719	0,044	0,045
-485,678	-200,000	-0,009	-0,053
-484,664	-200,000	-0,001	-0,041
-483,649	318,105	-0,039	0,053
-482,635	-174,178	0,034	0,001
-481,620	654,398	-0,041	0,077
-480,605	175,067	0,089	0,094
-479,591	435,359	0,029	0,046
-478,576	-98,166	-0,047	0,009
-477,562	57,573	0,120	0,086
-476,547	69,346	0,089	0,067
-475,532	-200,000	-0,060	-0,211
-474,518	490,955	-0,073	0,122
-473,503	-200,000	0,013	0,129
-472,489	-77,512	-0,066	0,017
-471,474	-47,196	-0,158	0,056
-470,459	233,376	-0,033	-0,040
-469,445	48,479	-0,058	0,040
-468,430	-40,330	-0,183	0,069
-467,416	-14,321	-0,015	0,007
-466,401	-92,203	0,063	0,013
-465,386	148,807	0,046	0,046
-464,372	800,000	-0,040	0,123
-463,357	-90,523	-0,150	0,031
-462,343	-200,000	-0,022	-0,140
-461,328	-89,528	-0,011	0,002
-460,313	-23,957	0,155	-0,067
-459,299	-30,668	-0,078	-0,032
-458,284	-85,131	-0,032	-0,007
-457,270	800,000	-0,033	-0,076
-456,255	124,229	-0,020	0,018
-455,241	-200,000	0,014	-0,088
-454,226	78,994	-0,081	0,064
-453,211	-90,608	0,137	-0,029
-452,197	507,484	0,066	0,111
-451,182	-200,000	-0,008	-0,236
-450,168	-163,508	0,135	-0,005
-449,153	-39,336	0,053	-0,020
-448,138	-200,000	0,007	0,083
-447,124	-200,000	0,009	-0,096
-446,109	-37,344	-0,070	-0,027
-445,095	93,960	-0,060	0,050
-444,080	-61,331	-0,072	0,022
-443,065	-200,000	-0,010	-0,042
-442,051	-159,223	-0,170	-0,007
-441,036	54,402	0,125	-0,087
-440,022	18,292	0,045	0,026
-439,007	159,554	-0,065	-0,066
-437,992	80,896	-0,043	-0,034
-436,978	-200,000	-0,036	0,118
-435,963	123,842	-0,046	0,042
-434,949	157,280	-0,086	0,087
-433,934	-41,571	-0,121	-0,045
-432,919	800,000	0,053	-0,131
-431,905	238,447	0,057	-0,069
-430,890	-200,000	-0,019	-0,062
-429,876	-200,000	0,025	0,089
-428,861	-66,110	-0,087	-0,025
-427,846	75,710	0,030	-0,023
-426,832	800,000	0,012	-0,034
-425,817	-200,000	0,014	-0,046
-424,803	-67,570	-0,067	-0,019
-423,788	-200,000	-0,034	0,197
-422,773	695,641	-0,047	0,091
-421,759	-124,432	0,083	0,009
-420,744	352,098	-0,056	0,081
-419,730	12,352	0,080	0,045
-418,715	800,000	0,031	0,079
-417,701	38,189	0,080	0,052
-416,686	-200,000	-0,022	0,093
-415,671	-154,908	0,154	-0,007
-414,657	40,723	0,090	0,059
-413,642	424,179	0,107	0,168
-412,628	380,003	-0,015	-0,022
-411,613	-200,000	0,008	0,037
-410,598	-200,000	0,008	-0,084
-409,584	-34,301	0,087	-0,034
-408,569	0,397	0,071	-0,037
-407,555	-4,458	0,026	-0,013
-406,540	-172,866	0,066	-0,001
-405,525	68,128	0,099	-0,074
-404,511	-186,827	-0,049	0,000
-403,496	5,283	0,148	-0,079
-402,482	18,708	0,053	-0,031
-401,467	635,989	-0,001	0,001
-400,452	-200,000	-0,015	-0,112
-399,438	178,988	0,009	-0,009
-398,423	247,994	0,018	0,022
-397,409	-11,345	0,016	0,008
-396,394	333,721	-0,038	-0,054
-395,379	330,476	0,175	-0,246
-394,365	47,133	-0,120	0,081
-393,350	182,169	0,041	0,044
-392,336	-200,000	0,024	0,081
-391,321	-200,000	0,006	-0,057
-390,306	800,000	-0,051	-0,113
-389,292	237,560	-0,109	-0,132
-388,277	-7,286	0,115	-0,057
-387,263	40,209	-0,043	0,028
-386,248	-200,000	0,052	-0,185
-385,233	506,817	-0,081	0,137
-384,219	800,000	-0,030	-0,079
-383,204	94,118	-0,104	-0,086
-382,190	119,650	-0,065	-0,059
-381,175	800,000	0,047	0,113
-380,160	314,258	-0,066	-0,091
-379,146	-129,055	0,049	0,005
-378,131	518,013	-0,008	-0,014
-377,117	118,734	0,037	-0,033
-376,102	257,974	-0,079	0,099
-375,088	160,381	-0,072	-0,073
-374,073	800,000	0,032	-0,080
-373,058	-178,609	-0,044	0,001
-372,044	-112,048	-0,100	-0,015
-371,029	-114,610	0,080	0,011
-370,015	527,395	-0,061	0,105
-369,000	-18,347	0,035	0,016
-367,985	-200,000	0,038	-0,147
-366,971	282,558	0,032	0,042
-365,956	-200,000	0,002	-0,022
-364,942	-87,292	-0,100	-0,022
-363,927	-200,000	-0,033	0,125
-362,912	102,069	-0,041	0,034
-361,898	-200,000	0,005	-0,056
-360,883	-122,528	-0,026	0,003
-359,869	-49,495	0,120	0,041
-358,854	800,000	0,038	-0,080
-357,839	396,148	0,091	0,138
-356,825	-100,073	-0,185	0,033
-355,810	273,822	0,025	-0,032
-354,796	108,887	-0,083	-0,072
-353,781	-9,145	0,091	-0,044
-352,766	-93,690	0,106	0,021
-351,752	-200,000	0,009	0,065
-350,737	-28,885	0,190	-0,079
-349,723	-82,949	0,054	0,013
-348,708	-51,179	0,044	-0,015
-347,693	800,000	-0,024	0,056
-346,679	-79,957	-0,058	0,014
-345,664	-99,451	0,067	-0,012
-344,650	800,000	0,045	0,107
-343,635	-158,264	0,090	-0,004
-342,620	-200,000	0,026	0,093
-341,606	-70,405	-0,108	0,030
-340,591	25,123	0,051	-0,030
-339,577	178,672	-0,019	-0,020
-338,562	63,729	-0,152	0,111
-337,548	37,428	0,083	-0,054
-336,533	424,855	0,013	0,021
-335,518	70,592	0,010	0,008
-334,504	-123,812	0,116	0,013
-333,489	318,250	-0,065	0,090
-332,475	44,960	-0,036	0,024
-331,460	121,596	0,056	0,051
-330,445	800,000	0,024	0,067
-329,431	553,422	0,058	0,102
-328,416	-200,000	0,030	0,130
-327,402	800,000	-0,045	0,114
-326,387	278,924	-0,047	0,061
-325,372	-200,000	-0,017	0,106
-324,358	800,000	-0,035	-0,101
-323,343	77,064	-0,045	-0,035
-322,329	290,751	0,041	0,054
-321,314	-94,161	0,155	-0,031
-320,299	-84,766	0,162	0,037
-319,285	-132,025	0,157	-0,015
-318,270	83,640	0,054	-0,043
-317,256	-150,196	-0,085	-0,005
-316,241	800,000	0,023	0,048
-315,226	127,956	-0,057	0,053
-314,212	-132,174	-0,118	-0,011
-313,197	58,813	-0,120	-0,085
-312,183	-195,836	0,073	-0,000
-311,168	-160,039	-0,141	-0,005
-310,153	61,738	0,020	0,014
-309,139	-135,799	-0,209	0,018
-308,124	43,425	-0,064	0,043
-307,110	-200,000	0,018	-0,080
-306,095	-12,020	0,075	-0,035
-305,080	-55,511	0,055	0,018
-304,066	-200,000	-0,003	0,054
-303,051	-87,074	-0,095	0,021
-302,037	34,097	-0,076	0,048
-301,022	527,472	0,014	0,024
-300,008	-200,000	-0,003	0,028
-298,993	-200,000	0,039	0,127
-297,978	-59,891	0,010	-0,003
-296,964	-0,546	0,046	0,023
-295,949	-8,366	-0,101	-0,049
-294,935	-177,380	0,047	-0,001
-293,920	32,817	-0,061	-0,038
-292,905	47,728	0,138	0,093
-291,891	110,782	0,038	-0,034
-290,876	699,806	-0,008	0,014
-289,862	800,000	-0,023	0,063
-288,847	800,000	-0,050	-0,118
-287,832	-29,604	-0,065	-0,027
-286,818	-38,195	0,015	0,006
-285,803	720,410	-0,033	-0,064
-284,789	-200,000	0,022	0,116
-283,774	54,010	-0,075	-0,052
-282,759	49,832	-0,068	0,046
-281,745	-134,546	-0,138	0,012
-280,730	-200,000	-0,003	0,023
-279,716	-200,000	0,012	-0,078
-278,701	-171,700	0,220	-0,005
-277,686	-50,297	0,123	0,042
-276,672	-88,540	-0,118	-0,025
-275,657	-104,134	0,096	-0,016
-274,643	-200,000	0,021	-0,155
-273,628	-200,000	-0,016	-0,053
-272,613	125,695	-0,057	-0,052
-271,599	158,195	0,077	-0,077
-270,584	30,376	-0,059	0,036
-269,570	-180,745	-0,177	0,003
-268,555	-70,127	0,037	-0,010
-267,540	-200,000	0,026	-0,136
-266,526	-200,000	0,000	0,093
-265,511	353,617	0,038	0,054
-264,497	-200,000	-0,030	0,139
-263,482	-146,718	0,076	-0,005
-262,467	-200,000	-0,000	-0,138
-261,453	-14,794	-0,048	-0,022
-260,438	157,634	-0,075	0,075
-259,424	33,977	-0,065	0,041
-258,409	800,000	0,023	-0,070
-257,395	-58,746	-0,092	-0,029
-256,380	19,034	-0,028	-0,016
-255,365	123,495	0,098	0,089
-254,351	215,562	0,094	-0,108
-253,336	132,632	-0,106	-0,099
-252,322	82,486	0,062	-0,049
-251,307	-10,874	0,048	-0,023
-250,292	-200,000	-0,043	-0,165
-249,278	-129,494	-0,101	0,010
-248,263	175,146	0,038	-0,040
-247,249	-79,800	-0,108	-0,026
-246,234	-73,057	-0,134	-0,035
-245,219	-200,000	0,005	-0,075
-244,205	800,000	0,004	-0,011
-243,190	280,059	-0,044	-0,057
-242,176	-65,870	0,067	-0,019
-241,161	286,415	0,058	-0,075
-240,146	-92,000	-0,053	-0,011
-239,132	-4,731	-0,071	-0,035
-238,117	-62,487	-0,074	0,022
-237,103	-200,000	-0,025	-0,084
-236,088	1,992	-0,131	-0,068
-235,073	-111,002	0,112	0,016
-234,059	-125,106	0,123	0,013
-233,044	-5,500	-0,209	0,103
-232,030	-140,582	0,055	-0,004
-231,015	-12,775	-0,074	0,035
-230,000	-200,000	0,015	-0,055
-228,986	800,000	-0,050	-0,130
-227,971	-2,706	-0,105	0,053
-226,957	409,296	0,036	-0,055
-225,942	-159,337	0,091	0,004
-224,927	31,570	-0,131	0,081
-223,913	-49,053	-0,058	-0,020
-222,898	177,983	0,066	0,069
-221,884	800,000	-0,018	-0,049
-220,869	-15,818	0,118	0,054
-219,855	460,038	0,068	0,110
-218,840	-200,000	0,024	-0,093
-217,825	531,503	-0,023	0,040
-216,811	4,964	0,230	-0,122
-215,796	374,976	-0,041	-0,060
-214,782	138,680	-0,045	-0,043
-213,767	800,000	0,057	0,124
-212,752	287,049	-0,029	0,038
-211,738	383,653	0,030	0,044
-210,723	-200,000	-0,005	0,038
-209,709	236,291	0,072	0,086
-208,694	-56,481	-0,060	0,019
-207,679	367,513	0,036	-0,052
-206,665	800,000	-0,051	0,105
-205,650	-200,000	0,003	0,012
-204,636	-200,000	-0,033	0,105
-203,621	800,000	-0,024	-0,054
-202,606	-200,000	-0,003	0,021
-201,592	800,000	-0,039	-0,080
-200,577	-180,919	-0,043	0,001
-199,563	143,820	0,086	-0,082
-198,548	-36,788	0,098	0,038
-197,533	72,773	-0,111	0,084
-196,519	-200,000	0,028	-0,136
-195,504	290,029	-0,061	0,080
-194,490	210,171	0,077	0,087
-193,475	-200,000	-0,020	-0,172
-192,460	-72,919	0,090	-0,024
-191,446	665,955	-0,060	0,112
-190,431	-200,000	-0,012	0,125
-189,417	-200,000	-0,012	0,133
-188,402	-200,000	-0,017	-0,120
-187,387	-58,453	-0,132	0,041
-186,373	-200,000	0,004	-0,068
-185,358	-200,000	-0,009	0,033
-184,344	-200,000	0,017	-0,119
-183,329	-200,000	-0,029	0,128
-182,315	144,064	0,031	-0,030
-181,300	-200,000	-0,007	0,060
-180,285	126,988	0,031	-0,029
-179,271	-184,578	-0,042	0,000
-178,256	131,397	-0,104	-0,096
-177,242	-200,000	-0,005	-0,111
-176,227	-200,000	-0,010	0,107
-175,212	800,000	0,086	0,211
-174,198	-110,022	0,116	0,017
-173,183	-200,000	-0,012	0,102
-172,169	165,068	-0,038	-0,038
-171,154	-200,000	0,051	-0,162
-170,139	74,268	0,133	0,100
-169,125	-82,290	-0,053	0,012
-168,110	-10,093	0,125	0,060
-167,096	-200,000	0,019	0,122
-166,081	526,380	-0,071	0,121
-165,066	-22,504	0,063	0,027
-164,052	-200,000	-0,015	0,078
-163,037	-200,000	-0,027	0,089
-162,023	-200,000	-0,024	0,106
-161,008	-67,075	0,115	-0,032
-159,993	-61,768	0,121	-0,036
-158,979	83,144	-0,063	0,049
-157,964	464,874	0,053	-0,086
-156,950	-187,361	-0,041	-0,000
-155,935	73,789	0,106	0,080
-154,920	-200,000	0,012	0,083
-153,906	-200,000	-0,003	0,012
-152,891	-85,230	-0,029	-0,006
-151,877	-200,000	-0,001	0,059
-150,862	-14,191	-0,019	0,009
-149,847	-200,000	-0,056	-0,221
-148,833	-200,000	0,013	0,056
-147,818	178,147	-0,066	0,069
-146,804	-200,000	-0,008	0,056
-145,789	-200,000	-0,002	0,106
-144,775	-184,738	-0,092	-0,001
-143,760	772,054	0,016	-0,031
-142,745	39,881	-0,064	-0,041
-141,731	800,000	-0,076	0,158
-140,716	65,363	0,117	0,085
-139,702	27,114	-0,165	-0,100
-138,687	800,000	0,020	-0,047
-137,672	-1,478	-0,088	-0,045
-136,658	-200,000	-0,018	0,132
-135,643	131,573	-0,063	0,058
-134,629	471,623	-0,071	-0,115
-133,614	-44,244	0,031	-0,011
-132,599	-200,000	-0,018	-0,094
-131,585	800,000	0,037	0,096
-130,570	-108,680	0,112	0,017
-129,556	209,570	-0,053	-0,060
-128,541	-200,000	-0,045	-0,164
-127,526	30,323	0,072	0,044
-126,512	85,073	-0,021	-0,017
-125,497	-192,153	0,119	-0,001
-124,483	122,399	-0,086	0,077
-123,468	-41,304	-0,125	0,046
-122,453	-139,036	0,039	0,003
-121,439	-54,869	-0,030	0,010
-120,424	800,000	0,037	0,116
