DTS Sentinel unit serial number:	SN410029Multiplexer serial number:	ORYXHardware model number:	OX2-SRSoftware version number:	ORYX F/W v4,00 Oryx Data Collector v3.7.2.0data status	okinstallation	B6 Nyhavnadifferential loss correction	single-endedforward channel	channel 2reverse channel	N/Adate	2023/12/09time	20:25:08forward acquisition time	300,00reverse acquisition time	0,00gamma	499,1914k internal	0,3130k external	0,3130temperature offset calibration	1,0000default loss term (dB/km)	0,3820temperature slope calibration	1,0000multiplexer offset coefficient	1,0000multiplexer slope coefficient	1,0000fibre end	0,00T internal ref (°C)	21,31T ext. ref 1 (°C)	5,39T ext. ref 2 (°C)	5,37length (m)	temperature (°C)	Stokes	anti-Stokes-744,400	65,007	0,143	-0,107
-743,385	151,065	-0,206	0,209
-742,371	800,000	0,033	0,075
-741,356	-151,293	-0,191	0,010
-740,342	151,850	0,033	0,034
-739,327	-5,907	-0,221	0,112
-738,312	-200,000	-0,039	-0,203
-737,298	87,520	-0,259	0,213
-736,283	-200,000	0,025	-0,087
-735,269	-8,739	-0,248	0,123
-734,254	25,612	-0,079	-0,049
-733,239	-114,636	-0,404	-0,057
-732,225	-109,007	0,198	-0,031
-731,210	800,000	0,018	0,048
-730,196	800,000	-0,009	0,024
-729,181	210,199	0,011	0,013
-728,167	-200,000	0,000	-0,050
-727,152	-122,054	-0,189	0,023
-726,137	36,370	-0,031	-0,020
-725,123	32,636	-0,159	0,102
-724,108	800,000	-0,032	-0,079
-723,094	140,724	0,018	-0,018
-722,079	459,584	-0,095	-0,157
-721,064	800,000	-0,006	-0,014
-720,050	800,000	-0,055	-0,165
-719,035	10,774	-0,143	-0,081
-718,021	800,000	-0,032	0,071
-717,006	-38,533	-0,043	-0,017
-715,991	-130,083	0,113	0,011
-714,977	25,082	-0,068	-0,042
-713,962	-200,000	-0,016	-0,088
-712,948	201,383	-0,047	-0,053
-711,933	229,522	0,102	-0,124
-710,918	248,982	-0,100	0,126
-709,904	109,982	-0,069	-0,062
-708,889	308,977	-0,052	-0,073
-707,875	-119,340	-0,161	-0,021
-706,860	-200,000	-0,011	-0,120
-705,845	-62,770	-0,131	-0,040
-704,831	-127,275	-0,091	-0,010
-703,816	436,136	-0,049	0,079
-702,802	-200,000	-0,029	-0,112
-701,787	-15,100	-0,135	-0,064
-700,772	23,439	-0,047	0,028
-699,758	-35,723	0,014	-0,006
-698,743	-161,091	0,024	-0,001
-697,729	-2,577	-0,053	-0,027
-696,714	-200,000	0,023	0,091
-695,699	-94,962	-0,143	-0,028
-694,685	777,161	0,021	-0,043
-693,670	651,897	0,048	-0,093
-692,656	266,993	0,038	0,050
-691,641	-200,000	0,029	-0,108
-690,627	-45,241	-0,081	0,030
-689,612	-88,648	-0,029	-0,006
-688,597	382,230	-0,030	0,045
-687,583	-200,000	-0,005	-0,082
-686,568	-200,000	-0,005	-0,102
-685,554	-200,000	-0,039	-0,155
-684,539	204,851	0,109	-0,126
-683,524	-200,000	0,030	-0,119
-682,510	-86,669	-0,010	-0,002
-681,495	-200,000	-0,009	-0,112
-680,481	121,358	-0,056	-0,051
-679,466	-4,226	0,102	-0,052
-678,451	-135,310	0,072	0,006
-677,437	-105,933	-0,171	-0,028
-676,422	24,153	0,147	0,090
-675,408	-200,000	-0,002	-0,080
-674,393	112,009	0,016	-0,014
-673,378	-52,513	-0,058	0,020
-672,364	-200,000	0,003	-0,192
-671,349	76,174	-0,092	-0,072
-670,335	-72,708	-0,110	-0,030
-669,320	800,000	-0,033	-0,071
-668,305	-200,000	0,022	0,128
-667,291	417,365	-0,009	0,014
-666,276	-74,333	-0,181	-0,048
-665,262	800,000	-0,046	-0,134
-664,247	63,292	0,017	0,012
-663,232	800,000	-0,035	0,094
-662,218	78,777	0,136	0,108
-661,203	796,072	0,099	0,204
-660,189	88,702	-0,028	-0,023
-659,174	-200,000	-0,024	-0,197
-658,159	-125,395	0,089	0,010
-657,145	60,925	-0,094	0,069
-656,130	800,000	-0,020	-0,051
-655,116	-75,212	-0,180	-0,047
-654,101	-88,205	0,199	-0,044
-653,086	-200,000	-0,011	0,040
-652,072	396,188	-0,031	-0,049
-651,057	-64,049	-0,091	-0,027
-650,043	338,626	-0,103	0,149
-649,028	800,000	-0,033	-0,084
-648,014	296,950	0,034	0,047
-646,999	-104,729	-0,115	0,019
-645,984	141,161	-0,106	0,104
-644,970	800,000	-0,037	-0,115
-643,955	-200,000	-0,003	-0,197
-642,941	800,000	-0,032	-0,101
-641,926	280,883	-0,082	0,109
-640,911	-200,000	0,012	0,083
-639,897	-200,000	0,016	0,193
-638,882	-200,000	0,030	-0,114
-637,868	-200,000	-0,003	-0,078
-636,853	-200,000	0,027	-0,134
-635,838	122,738	-0,050	-0,046
-634,824	411,001	0,043	-0,068
-633,809	748,268	0,044	-0,088
-632,795	9,433	-0,062	-0,035
-631,780	219,636	0,051	0,061
-630,765	800,000	0,025	-0,055
-629,751	498,951	-0,072	-0,124
-628,736	-200,000	-0,008	-0,047
-627,722	83,560	0,133	-0,107
-626,707	17,589	-0,026	0,015
-625,692	-44,287	0,049	-0,018
-624,678	19,357	0,096	-0,057
-623,663	97,187	-0,084	-0,072
-622,649	-58,217	-0,053	-0,017
-621,634	-72,734	-0,119	0,032
-620,619	-73,314	-0,114	-0,031
-619,605	119,829	-0,052	-0,048
-618,590	-38,491	-0,054	0,021
-617,576	800,000	0,007	-0,020
-616,561	3,021	-0,155	-0,083
-615,546	591,795	-0,040	-0,073
-614,532	-37,029	-0,072	-0,028
-613,517	255,978	0,042	-0,053
-612,503	245,124	0,024	-0,030
-611,488	-25,030	-0,094	-0,041
-610,474	-54,521	-0,143	-0,048
-609,459	-62,995	-0,099	-0,030
-608,444	-94,568	-0,027	0,005
-607,430	-200,000	-0,027	-0,104
-606,415	-200,000	0,036	0,144
-605,401	-4,529	0,066	-0,034
-604,386	-80,794	-0,085	-0,021
-603,371	-38,727	0,061	0,024
-602,357	268,596	0,047	-0,061
-601,342	-73,909	-0,084	-0,022
-600,328	-200,000	0,027	0,112
-599,313	-200,000	-0,013	0,056
-598,298	215,923	0,042	-0,050
-597,284	-166,365	0,069	0,002
-596,269	745,152	0,016	-0,031
-595,255	47,814	-0,099	0,068
-594,240	-122,154	-0,052	-0,006
-593,225	-200,000	-0,001	-0,075
-592,211	-180,863	-0,086	0,001
-591,196	4,127	-0,081	-0,044
-590,182	82,576	0,016	0,012
-589,167	-200,000	-0,022	0,082
-588,152	24,203	0,151	-0,092
-587,138	-99,564	-0,105	-0,019
-586,123	273,662	-0,053	-0,070
-585,109	30,939	-0,142	-0,090
-584,094	36,469	-0,148	-0,097
-583,079	739,321	0,008	-0,017
-582,065	320,932	-0,049	0,068
-581,050	800,000	-0,050	0,145
-580,036	-126,350	-0,053	-0,006
-579,021	-96,980	-0,090	-0,017
-578,006	800,000	0,034	0,080
-576,992	-62,392	0,138	0,042
-575,977	-62,294	-0,040	-0,012
-574,963	130,543	0,043	0,041
-573,948	-92,942	0,103	0,021
-572,934	-200,000	-0,020	0,098
-571,919	-200,000	-0,007	-0,062
-570,904	-51,788	0,058	-0,020
-569,890	262,631	-0,058	0,075
-568,875	800,000	0,020	0,050
-567,861	-14,672	0,151	0,071
-566,846	96,438	0,085	0,072
-565,831	73,416	-0,034	0,026
-564,817	46,713	-0,074	-0,051
-563,802	611,570	-0,033	0,061
-562,788	-104,190	-0,070	-0,012
-561,773	34,493	0,083	0,054
-560,758	-148,137	-0,071	0,004
-559,744	7,637	0,067	0,037
-558,729	-121,738	0,145	0,017
-557,715	-20,630	-0,059	-0,027
-556,700	-11,798	-0,086	0,042
-555,685	-200,000	0,013	-0,114
-554,671	291,466	-0,017	0,023
-553,656	213,981	0,070	0,081
-552,642	531,935	0,041	-0,071
-551,627	380,286	0,079	-0,120
-550,612	-54,931	-0,073	-0,024
-549,598	-31,220	-0,087	-0,036
-548,583	-200,000	0,007	0,085
-547,569	155,104	0,075	-0,076
-546,554	-200,000	0,013	0,096
-545,539	-200,000	0,001	0,123
-544,525	800,000	-0,052	-0,116
-543,510	-5,746	0,017	0,008
-542,496	-168,225	-0,017	-0,000
-541,481	-200,000	-0,014	0,074
-540,466	532,324	0,027	0,047
-539,452	-200,000	-0,022	0,100
-538,437	216,241	-0,034	0,040
-537,423	-85,375	-0,090	-0,021
-536,408	-115,058	0,065	0,009
-535,393	-8,913	0,040	-0,020
-534,379	-38,333	-0,123	-0,048
-533,364	-33,248	-0,022	0,009
-532,350	149,541	0,101	0,101
-531,335	-200,000	0,021	0,157
-530,321	464,840	0,055	0,091
-529,306	-25,395	0,087	0,038
-528,291	48,310	-0,098	-0,068
-527,277	85,456	-0,096	-0,077
-526,262	-80,240	-0,029	0,007
-525,248	-167,736	0,097	0,003
-524,233	140,097	0,016	0,016
-523,218	-15,613	0,122	-0,057
-522,204	800,000	-0,051	-0,113
-521,189	-200,000	-0,012	-0,098
-520,175	-71,927	-0,075	0,020
-519,160	673,824	-0,041	-0,078
-518,145	-84,038	0,222	0,052
-517,131	800,000	0,035	0,074
-516,116	-200,000	0,009	0,081
-515,102	-200,000	-0,020	0,093
-514,087	-131,421	-0,069	0,007
-513,072	688,260	-0,033	-0,064
-512,058	-200,000	-0,010	-0,049
-511,043	-200,000	-0,002	-0,040
-510,029	800,000	-0,042	-0,112
-509,014	800,000	0,081	0,171
-507,999	-58,392	-0,027	0,008
-506,985	-120,559	-0,110	-0,014
-505,970	87,540	0,039	-0,031
-504,956	38,468	0,090	-0,059
-503,941	-200,000	-0,006	-0,155
-502,926	-75,041	0,017	0,004
-501,912	-200,000	-0,016	0,069
-500,897	-10,074	0,051	-0,025
-499,883	6,681	0,053	-0,029
-498,868	255,996	-0,090	-0,114
-497,853	-127,351	-0,037	-0,004
-496,839	-90,531	0,027	0,006
-495,824	-67,075	0,051	0,015
-494,810	-140,304	-0,140	0,011
-493,795	574,783	0,036	0,065
-492,781	-195,653	-0,028	-0,000
-491,766	-175,419	-0,030	-0,001
-490,751	-88,400	0,030	0,007
-489,737	595,094	0,019	-0,035
-488,722	800,000	0,069	0,187
-487,708	640,303	-0,029	0,055
-486,693	-200,000	0,021	0,174
-485,678	354,461	0,029	-0,043
-484,664	800,000	-0,038	0,122
-483,649	-200,000	0,018	0,087
-482,635	-200,000	0,031	0,104
-481,620	76,630	0,073	0,057
-480,605	-200,000	0,018	0,130
-479,591	-9,644	0,144	0,070
-478,576	-200,000	0,005	-0,129
-477,562	800,000	-0,019	-0,039
-476,547	-200,000	0,004	0,126
-475,532	-200,000	0,003	-0,162
-474,518	-200,000	0,008	0,129
-473,503	-47,751	0,099	-0,035
-472,489	145,965	0,068	-0,067
-471,474	191,785	0,087	0,096
-470,459	-92,250	-0,085	-0,018
-469,445	-200,000	0,027	-0,097
-468,430	339,082	0,099	-0,142
-467,416	225,237	0,045	0,053
-466,401	-27,859	0,104	-0,044
-465,386	413,231	-0,052	0,082
-464,372	130,620	-0,055	-0,052
-463,357	-200,000	-0,006	-0,038
-462,343	53,476	-0,093	0,066
-461,328	-25,951	-0,035	0,015
-460,313	-200,000	0,062	-0,212
-459,299	304,061	-0,046	0,063
-458,284	89,745	0,141	0,116
-457,270	-39,257	-0,020	-0,008
-456,255	266,576	-0,107	-0,137
-455,241	-65,218	0,036	0,011
-454,226	800,000	-0,008	0,020
-453,211	-73,985	0,079	0,021
-452,197	-200,000	-0,022	-0,097
-451,182	800,000	0,060	0,152
-450,168	59,326	-0,107	0,077
-449,153	43,957	-0,045	0,030
-448,138	82,202	-0,161	-0,129
-447,124	-102,264	0,034	0,006
-446,109	-200,000	0,006	-0,061
-445,095	119,685	-0,074	0,067
-444,080	-179,162	0,130	-0,002
-443,065	-200,000	0,000	0,024
-442,051	4,848	-0,143	-0,077
-441,036	-174,595	-0,108	0,002
-440,022	800,000	-0,038	-0,083
-439,007	-15,053	0,032	-0,015
-437,992	698,976	-0,032	0,062
-436,978	-148,354	0,090	0,005
-435,963	-200,000	0,001	0,008
-434,949	800,000	-0,006	0,019
-433,934	-12,354	-0,086	-0,041
-432,919	94,278	-0,103	-0,086
-431,905	-200,000	0,146	0,000
-430,890	397,085	-0,049	0,075
-429,876	318,412	-0,030	0,042
-428,861	-200,000	0,008	-0,031
-427,846	100,590	0,068	-0,058
-426,832	33,079	-0,043	-0,027
-425,817	-157,017	0,127	0,006
-424,803	-180,327	-0,054	0,001
-423,788	-200,000	-0,012	-0,117
-422,773	78,384	0,044	0,034
-421,759	706,157	0,045	0,088
-420,744	132,219	-0,109	0,103
-419,730	-200,000	0,021	-0,072
-418,715	-200,000	0,003	-0,240
-417,701	70,762	-0,093	-0,070
-416,686	-170,024	-0,049	-0,001
-415,671	-200,000	-0,026	-0,091
-414,657	-2,333	-0,043	0,022
-413,642	106,732	-0,158	-0,138
-412,628	-200,000	0,008	-0,072
-411,613	93,067	-0,168	-0,139
-410,598	-200,000	0,006	-0,089
-409,584	-184,733	-0,126	-0,001
-408,569	419,163	0,072	0,114
-407,555	-90,729	0,177	0,037
-406,540	221,364	-0,069	0,081
-405,525	78,527	-0,212	-0,166
-404,511	-11,813	0,047	-0,023
-403,496	11,658	-0,044	-0,025
-402,482	800,000	0,028	0,081
-401,467	50,949	0,085	0,059
-400,452	98,203	0,107	0,091
-399,438	-200,000	0,003	0,079
-398,423	49,372	-0,158	0,109
-397,409	7,362	0,085	0,046
-396,394	-102,748	-0,046	-0,008
-395,379	-200,000	-0,016	0,063
-394,365	-22,309	0,073	0,032
-393,350	-200,000	-0,001	0,069
-392,336	-137,575	0,198	-0,016
-391,321	110,777	-0,112	0,098
-390,306	397,058	0,025	0,038
-389,292	-200,000	0,010	0,037
-388,277	-24,169	0,075	-0,033
-387,263	582,529	-0,061	0,109
-386,248	-200,000	-0,002	-0,144
-385,233	148,575	0,062	-0,061
-384,219	200,639	0,052	0,058
-383,204	359,795	-0,046	0,068
-382,190	29,780	0,065	-0,041
-381,175	6,980	0,097	0,053
-380,160	-86,534	0,122	0,027
-379,146	35,532	-0,100	0,064
-378,131	800,000	0,036	0,091
-377,117	-66,797	0,126	-0,036
-376,102	-200,000	0,042	-0,153
-375,088	299,335	-0,052	-0,071
-374,073	715,404	0,050	0,098
-373,058	-200,000	0,015	-0,057
-372,044	-200,000	0,036	0,125
-371,029	800,000	0,022	0,071
-370,015	-139,357	-0,061	0,005
-369,000	123,486	-0,133	0,122
-367,985	-53,019	-0,081	-0,027
-366,971	0,175	-0,094	-0,049
-365,956	-117,551	0,108	-0,014
-364,942	-200,000	0,009	0,145
-363,927	-200,000	-0,009	0,132
-362,912	800,000	-0,009	-0,019
-361,898	-181,163	0,049	0,001
-360,883	204,085	0,098	0,112
-359,869	354,693	-0,067	-0,098
-358,854	201,133	0,075	-0,085
-357,839	-200,000	0,002	-0,054
-356,825	206,465	0,046	-0,053
-355,810	333,205	0,058	-0,082
-354,796	800,000	0,017	0,037
-353,781	201,501	0,017	-0,020
-352,766	-84,921	-0,167	-0,038
-351,752	247,102	0,019	-0,023
-350,737	-90,384	0,087	0,018
-349,723	304,464	0,049	-0,067
-348,708	-200,000	-0,006	0,036
-347,693	-17,763	-0,048	0,022
-346,679	18,596	0,103	-0,060
-345,664	266,409	-0,045	-0,058
-344,650	-200,000	0,009	-0,087
-343,635	-127,357	0,110	-0,012
-342,620	210,869	-0,015	0,018
-341,606	800,000	0,048	-0,142
-340,591	-129,453	-0,175	-0,018
-339,577	32,222	-0,080	0,050
-338,562	-200,000	-0,035	-0,228
-337,548	281,868	0,082	-0,108
-336,533	-200,000	0,008	-0,065
-335,518	77,911	-0,112	0,087
-334,504	-200,000	-0,031	0,119
-333,489	76,360	-0,040	-0,031
-332,475	471,944	0,050	0,083
-331,460	-115,646	0,093	0,013
-330,445	800,000	-0,050	-0,140
-329,431	-200,000	-0,028	-0,163
-328,416	315,019	-0,041	-0,057
-327,402	-200,000	-0,043	0,228
-326,387	-84,506	-0,009	0,002
-325,372	349,523	0,021	0,030
-324,358	-90,969	-0,090	-0,019
-323,343	-200,000	0,030	0,118
-322,329	3,613	0,093	0,049
-321,314	46,743	-0,102	-0,069
-320,299	600,807	-0,026	0,047
-319,285	800,000	0,014	0,035
-318,270	800,000	-0,031	-0,085
-317,256	475,594	-0,069	-0,114
-316,241	-121,058	0,060	-0,007
-315,226	338,985	0,047	0,067
-314,212	193,472	0,143	0,159
-313,197	343,085	-0,058	0,084
-312,183	185,160	0,092	0,100
-311,168	54,270	0,029	0,020
-310,153	-200,000	-0,010	-0,052
-309,139	486,805	0,033	-0,056
-308,124	415,463	-0,043	0,067
-307,110	-13,491	0,052	0,024
-306,095	-200,000	-0,010	0,126
-305,080	627,493	0,049	0,090
-304,066	3,805	-0,058	0,031
-303,051	-200,000	0,002	-0,115
-302,037	-105,644	-0,052	-0,009
-301,022	11,247	0,103	-0,057
-300,008	-200,000	-0,009	0,117
-298,993	264,914	-0,020	0,025
-297,978	195,756	0,039	0,043
-296,964	800,000	0,037	0,087
-295,949	-46,111	0,055	0,020
-294,935	39,850	0,029	0,019
-293,920	-200,000	-0,010	-0,073
-292,905	-200,000	-0,000	0,217
-291,891	-136,207	-0,098	0,008
-290,876	800,000	0,024	-0,054
-289,862	-109,034	0,050	0,008
-288,847	-200,000	0,002	0,029
-287,832	-13,387	-0,038	0,018
-286,818	162,869	-0,048	0,050
-285,803	70,622	0,012	0,009
-284,789	153,048	-0,065	0,065
-283,774	73,033	0,131	0,100
-282,759	71,761	0,141	-0,107
-281,745	17,014	-0,095	-0,055
-280,730	-116,685	0,149	-0,020
-279,716	800,000	0,029	0,094
-278,701	-119,006	0,057	0,007
-277,686	447,152	0,043	0,069
-276,672	488,135	0,014	0,024
-275,657	-6,101	0,037	0,019
-274,643	355,845	-0,026	-0,038
-273,628	800,000	0,015	0,047
-272,613	-200,000	0,000	-0,048
-271,599	-110,513	0,094	-0,014
-270,584	-200,000	0,020	-0,163
-269,570	185,614	0,006	-0,007
-268,555	-34,777	0,057	0,023
-267,540	54,543	-0,151	-0,106
-266,526	-200,000	-0,013	-0,059
-265,511	800,000	-0,020	0,062
-264,497	340,819	0,018	0,026
-263,482	127,129	0,037	0,035
-262,467	324,246	0,055	-0,076
-261,453	57,620	0,083	0,059
-260,438	430,651	-0,025	0,039
-259,424	335,829	-0,055	-0,078
-258,409	-135,085	-0,087	0,008
-257,395	154,183	-0,025	-0,025
-256,380	73,494	0,110	-0,084
-255,365	56,546	0,024	-0,017
-254,351	-200,000	0,003	0,075
-253,336	78,610	-0,090	-0,070
-252,322	-104,857	-0,039	0,006
-251,307	-162,450	0,139	0,005
-250,292	-54,407	-0,104	-0,034
-249,278	46,339	0,099	-0,067
-248,263	792,451	-0,043	-0,086
-247,249	113,307	-0,104	0,092
-246,234	748,842	0,071	-0,141
-245,219	-3,424	-0,022	0,011
-244,205	800,000	-0,011	0,031
-243,190	26,476	0,149	0,090
-242,176	356,629	0,049	-0,072
-241,161	86,413	0,029	0,024
-240,146	-48,381	-0,049	-0,017
-239,132	-25,101	0,099	-0,043
-238,117	-200,000	0,002	-0,012
-237,103	28,250	-0,020	0,013
-236,088	-200,000	-0,020	-0,075
-235,073	-39,181	0,131	0,050
-234,059	175,815	0,047	0,050
-233,044	67,503	-0,039	-0,029
-232,030	-2,216	-0,056	0,029
-231,015	-17,122	0,144	0,066
-230,000	95,301	-0,085	-0,070
-228,986	-145,925	0,072	-0,005
-227,971	-6,395	0,101	0,050
-226,957	147,374	0,035	-0,034
-225,942	-200,000	0,009	0,160
-224,927	163,323	0,078	0,080
-223,913	-200,000	-0,007	-0,105
-222,898	114,739	0,095	-0,084
-221,884	800,000	0,044	-0,113
-220,869	40,171	-0,108	-0,071
-219,855	19,160	-0,080	-0,047
-218,840	421,238	0,044	0,070
-217,825	158,364	-0,028	-0,028
-216,811	56,472	-0,085	0,060
-215,796	285,767	-0,008	-0,010
-214,782	-94,357	-0,112	0,022
-213,767	-200,000	-0,004	-0,108
-212,752	402,934	0,075	-0,116
-211,738	-11,074	-0,131	-0,063
-210,723	-90,638	-0,123	-0,026
-209,709	-112,890	-0,143	-0,020
-208,694	392,238	-0,074	-0,113
-207,679	800,000	-0,092	-0,201
-206,665	189,266	0,068	0,074
-205,650	-200,000	-0,004	-0,038
-204,636	363,075	-0,052	0,076
-203,621	-63,199	0,092	-0,028
-202,606	-105,306	-0,150	0,025
-201,592	-116,798	-0,037	0,005
-200,577	-200,000	-0,005	0,040
-199,563	800,000	-0,051	0,107
-198,548	53,268	0,055	-0,038
-197,533	-6,935	0,204	0,101
-196,519	-150,328	0,145	-0,008
-195,504	800,000	0,012	0,036
-194,490	169,218	0,019	-0,020
-193,475	175,272	-0,106	0,112
-192,460	99,040	0,040	-0,034
-191,446	-128,057	-0,106	-0,011
-190,431	501,192	0,061	0,103
-189,417	-119,471	0,138	0,017
-188,402	-46,601	0,120	-0,043
-187,387	165,758	-0,138	-0,142
-186,373	229,108	-0,038	-0,045
-185,358	-200,000	-0,023	0,151
-184,344	14,050	-0,082	0,046
-183,329	-129,852	0,106	-0,010
-182,315	-200,000	-0,015	0,179
-181,300	-112,971	-0,069	0,010
-180,285	800,000	0,018	0,058
-179,271	800,000	-0,048	-0,153
-178,256	76,095	0,072	-0,056
-177,242	-200,000	0,049	0,251
-176,227	-47,788	0,135	-0,047
-175,212	463,900	0,023	-0,037
-174,198	-142,036	-0,034	0,002
-173,183	204,261	-0,065	-0,073
-172,169	402,648	-0,048	0,074
-171,154	620,090	-0,041	0,075
-170,139	-200,000	0,010	-0,036
-169,125	485,786	0,048	0,080
-168,110	-40,006	0,057	-0,022
-167,096	-200,000	-0,006	0,102
-166,081	166,379	0,149	-0,153
-165,066	-200,000	0,004	0,015
-164,052	140,979	-0,114	0,109
-163,037	-109,172	-0,052	0,008
-162,023	514,095	0,032	-0,054
-161,008	-28,870	-0,061	0,026
-159,993	151,328	0,107	0,106
-158,979	-85,647	0,097	-0,022
-157,964	-54,671	-0,163	-0,053
-156,950	139,885	0,013	-0,012
-155,935	213,336	0,112	0,128
-154,920	-98,609	-0,036	0,007
-153,906	-200,000	0,016	-0,057
-152,891	336,421	0,067	0,095
-151,877	-72,706	-0,106	0,028
-150,862	65,031	0,019	-0,014
-149,847	-200,000	-0,021	-0,069
-148,833	-200,000	-0,023	0,113
-147,818	-200,000	-0,036	0,149
-146,804	336,197	-0,074	0,105
-145,789	800,000	-0,025	0,052
-144,775	800,000	-0,029	-0,079
-143,760	14,029	0,124	0,070
-142,745	743,270	-0,022	0,043
-141,731	421,062	-0,044	-0,068
-140,716	-136,507	0,051	-0,004
-139,702	-200,000	-0,041	0,176
-138,687	442,800	0,108	0,173
-137,672	189,894	-0,090	0,098
-136,658	-148,138	0,052	0,003
-135,643	800,000	-0,040	0,092
-134,629	710,832	0,040	0,077
-133,614	151,862	0,088	0,087
-132,599	228,798	-0,024	0,029
-131,585	35,032	-0,063	-0,040
-130,570	789,872	0,098	-0,196
-129,556	-200,000	0,003	-0,081
-128,541	-200,000	-0,009	-0,106
-127,526	-38,375	-0,035	-0,013
-126,512	-147,802	0,151	-0,009
-125,497	-58,474	0,049	-0,015
-124,483	-200,000	0,013	-0,090
-123,468	307,132	-0,070	-0,095
-122,453	560,310	0,069	-0,121
-121,439	-132,588	-0,043	0,004
-120,424	-200,000	-0,020	0,074
-119,410	211,602	0,037	-0,043
