DTS Sentinel unit serial number:	SN410029Multiplexer serial number:	ORYXHardware model number:	OX2-SRSoftware version number:	ORYX F/W v4,00 Oryx Data Collector v3.7.2.0data status	okinstallation	B6 Nyhavnadifferential loss correction	single-endedforward channel	channel 2reverse channel	N/Adate	2023/12/09time	17:00:08forward acquisition time	300,00reverse acquisition time	0,00gamma	499,1914k internal	0,3131k external	0,3131temperature offset calibration	1,0000default loss term (dB/km)	0,3820temperature slope calibration	1,0000multiplexer offset coefficient	1,0000multiplexer slope coefficient	1,0000fibre end	0,00T internal ref (°C)	20,94T ext. ref 1 (°C)	4,70T ext. ref 2 (°C)	4,69length (m)	temperature (°C)	Stokes	anti-Stokes-744,400	800,000	0,046	-0,131
-743,385	-107,088	-0,277	0,045
-742,371	62,281	0,051	-0,038
-741,356	60,753	-0,153	0,113
-740,342	-26,140	0,016	0,007
-739,327	-86,085	-0,283	-0,065
-738,312	-24,757	-0,082	-0,036
-737,298	-185,329	-0,209	-0,002
-736,283	126,862	0,095	-0,089
-735,269	108,913	-0,170	0,151
-734,254	-200,000	-0,012	0,067
-733,239	-118,034	-0,577	-0,076
-732,225	-90,398	0,071	-0,015
-731,210	-149,914	0,076	0,004
-730,196	685,724	-0,019	0,037
-729,181	-200,000	-0,002	-0,120
-728,167	-200,000	-0,007	0,031
-727,152	-101,874	0,017	0,003
-726,137	732,482	-0,051	-0,102
-725,123	39,025	-0,091	-0,060
-724,108	-100,047	-0,184	-0,034
-723,094	758,373	0,033	-0,067
-722,079	-120,386	-0,081	0,010
-721,064	197,532	0,007	-0,008
-720,050	-93,524	-0,030	-0,006
-719,035	14,354	-0,028	0,016
-718,021	51,602	-0,165	-0,116
-717,006	-138,395	-0,078	-0,006
-715,991	356,730	-0,032	0,047
-714,977	-128,964	-0,159	-0,016
-713,962	16,708	0,021	0,013
-712,948	800,000	-0,044	0,124
-711,933	800,000	-0,023	-0,063
-710,918	-25,812	0,043	0,019
-709,904	-2,588	-0,092	-0,048
-708,889	800,000	0,048	-0,101
-707,875	-200,000	0,028	-0,204
-706,860	0,591	0,085	0,045
-705,845	-81,198	0,103	0,025
-704,831	392,519	0,051	0,079
-703,816	-123,085	-0,072	-0,009
-702,802	183,716	-0,024	0,027
-701,787	11,455	-0,091	0,051
-700,772	535,995	-0,045	0,080
-699,758	-27,197	-0,079	0,034
-698,743	-200,000	0,014	0,129
-697,729	-57,000	0,066	-0,021
-696,714	-200,000	-0,004	0,020
-695,699	-76,997	-0,017	0,004
-694,685	-107,396	-0,038	-0,006
-693,670	-114,743	-0,138	0,019
-692,656	800,000	0,017	-0,049
-691,641	-23,451	0,026	-0,012
-690,627	800,000	0,045	0,101
-689,612	-200,000	-0,011	-0,045
-688,597	-152,975	-0,098	-0,005
-687,583	66,898	0,100	-0,075
-686,568	-13,649	-0,085	-0,041
-685,554	132,381	0,079	-0,075
-684,539	-46,542	-0,073	0,026
-683,524	-200,000	0,011	-0,140
-682,510	65,254	-0,060	-0,045
-681,495	-200,000	-0,028	0,113
-680,481	-200,000	-0,010	-0,150
-679,466	53,976	-0,111	-0,079
-678,451	-54,961	0,099	0,033
-677,437	30,239	0,022	0,014
-676,422	-200,000	0,021	0,077
-675,408	43,135	0,069	-0,047
-674,393	-126,914	0,085	-0,009
-673,378	-62,740	-0,165	0,050
-672,364	800,000	-0,037	-0,103
-671,349	382,382	0,077	-0,118
-670,335	617,539	-0,032	0,060
-669,320	80,877	-0,042	-0,033
-668,305	57,320	-0,094	0,068
-667,291	90,037	-0,075	0,062
-666,276	137,306	-0,117	-0,113
-665,262	-200,000	-0,167	0,000
-664,247	543,855	0,034	0,060
-663,232	-31,202	-0,095	0,039
-662,218	50,650	0,034	0,024
-661,203	284,290	-0,076	0,102
-660,189	-93,272	0,113	0,023
-659,174	-200,000	-0,030	0,111
-658,159	93,914	0,060	0,050
-657,145	732,955	-0,011	0,022
-656,130	5,383	-0,092	-0,050
-655,116	788,408	-0,035	0,071
-654,101	800,000	-0,083	0,175
-653,086	309,869	0,051	-0,071
-652,072	-32,926	-0,095	0,039
-651,057	-200,000	-0,034	-0,151
-650,043	-200,000	0,013	-0,083
-649,028	-28,128	0,207	0,088
-648,014	295,697	0,013	0,017
-646,999	-200,000	-0,008	0,049
-645,984	256,269	-0,062	0,080
-644,970	159,588	-0,064	0,066
-643,955	-200,000	0,017	-0,076
-642,941	262,783	-0,133	-0,171
-641,926	-9,738	0,084	0,041
-640,911	68,400	0,065	0,049
-639,897	-200,000	-0,038	0,245
-638,882	285,124	0,028	0,038
-637,868	191,880	0,043	-0,048
-636,853	273,866	-0,108	-0,142
-635,838	-46,659	-0,036	-0,013
-634,824	-200,000	0,010	0,042
-633,809	752,660	-0,026	0,052
-632,795	66,166	0,129	-0,097
-631,780	-32,143	0,136	-0,056
-630,765	413,571	-0,054	0,085
-629,751	-200,000	-0,005	0,039
-628,736	238,190	-0,078	-0,096
-627,722	1,706	0,039	0,021
-626,707	-65,040	0,025	-0,007
-625,692	318,875	0,033	-0,046
-624,678	50,749	0,005	-0,003
-623,663	-200,000	0,006	0,052
-622,649	-200,000	-0,039	-0,237
-621,634	-200,000	-0,013	-0,108
-620,619	-169,179	-0,033	0,001
-619,605	15,988	-0,066	-0,038
-618,590	-122,490	-0,151	0,018
-617,576	-27,387	0,075	0,032
-616,561	146,258	-0,072	0,071
-615,546	-7,130	0,079	-0,039
-614,532	114,625	-0,041	0,037
-613,517	319,104	-0,062	-0,087
-612,503	-200,000	0,015	-0,058
-611,488	795,718	-0,060	-0,123
-610,474	42,834	0,077	-0,052
-609,459	-22,902	0,020	0,009
-608,444	151,844	-0,147	-0,148
-607,430	24,065	-0,119	-0,072
-606,415	-200,000	0,009	-0,086
-605,401	-128,570	-0,083	-0,009
-604,386	129,916	-0,079	0,075
-603,371	-151,681	0,079	0,004
-602,357	-183,059	-0,090	-0,001
-601,342	154,371	-0,038	-0,039
-600,328	800,000	0,032	-0,087
-599,313	219,700	0,043	-0,051
-598,298	-200,000	-0,005	-0,147
-597,284	800,000	0,017	0,044
-596,269	-200,000	-0,007	0,121
-595,255	3,392	-0,067	0,036
-594,240	-200,000	0,010	-0,107
-593,225	800,000	-0,042	0,132
-592,211	-200,000	0,003	-0,075
-591,196	-200,000	0,040	-0,184
-590,182	-37,812	0,167	0,065
-589,167	219,180	0,081	0,096
-588,152	-12,031	0,095	-0,046
-587,138	201,302	-0,046	-0,053
-586,123	-33,369	-0,092	0,038
-585,109	-83,220	-0,074	0,017
-584,094	800,000	0,022	-0,065
-583,079	-152,668	0,162	-0,008
-582,065	258,584	-0,033	0,042
-581,050	800,000	0,060	-0,149
-580,036	69,421	-0,020	-0,015
-579,021	22,120	-0,067	0,040
-578,006	-95,165	-0,085	0,017
-576,992	-200,000	0,007	0,053
-575,977	-74,154	0,045	0,012
-574,963	190,826	0,037	0,041
-573,948	800,000	0,034	-0,081
-572,934	800,000	0,044	-0,131
-571,919	255,753	-0,060	-0,076
-570,904	24,139	0,024	0,015
-569,890	-200,000	-0,009	-0,107
-568,875	-91,208	0,093	0,019
-567,861	-200,000	-0,001	0,034
-566,846	112,762	-0,055	0,049
-565,831	-200,000	-0,004	0,039
-564,817	-200,000	-0,005	0,085
-563,802	-200,000	-0,140	-0,000
-562,788	419,018	-0,035	-0,055
-561,773	707,514	0,055	0,108
-560,758	337,474	-0,036	-0,051
-559,744	676,441	0,053	0,101
-558,729	800,000	0,058	0,173
-557,715	140,919	0,072	-0,070
-556,700	-200,000	-0,014	-0,083
-555,685	261,269	-0,069	0,089
-554,671	-159,263	0,134	-0,005
-553,656	164,956	-0,037	0,039
-552,642	576,186	-0,024	-0,043
-551,627	-146,931	-0,096	0,006
-550,612	362,020	0,128	0,191
-549,598	364,195	-0,015	-0,023
-548,583	336,011	0,075	-0,108
-547,569	-184,548	-0,146	-0,002
-546,554	67,506	0,061	0,046
-545,539	-16,839	0,059	0,028
-544,525	-200,000	0,001	0,026
-543,510	-8,278	0,081	0,040
-542,496	-176,911	-0,140	-0,003
-541,481	243,822	0,076	-0,094
-540,466	637,825	-0,111	-0,209
-539,452	142,466	0,101	-0,099
-538,437	128,764	0,106	0,100
-537,423	-200,000	0,009	-0,032
-536,408	15,371	0,106	0,061
-535,393	-200,000	0,003	-0,109
-534,379	-46,083	0,032	0,012
-533,364	800,000	0,060	-0,151
-532,350	-200,000	0,015	-0,103
-531,335	-148,812	0,130	-0,008
-530,321	95,679	0,108	0,091
-529,306	-51,049	0,045	0,016
-528,291	274,357	-0,034	0,045
-527,277	-19,821	-0,122	-0,055
-526,262	-200,000	-0,012	-0,043
-525,248	-98,040	-0,060	-0,011
-524,233	-200,000	0,021	0,069
-523,218	165,279	0,094	0,098
-522,204	371,245	0,061	0,091
-521,189	376,388	0,066	0,099
-520,175	42,193	0,064	-0,043
-519,160	-200,000	-0,031	-0,107
-518,145	800,000	-0,061	0,174
-517,131	-65,883	0,071	0,021
-516,116	-71,046	-0,096	-0,026
-515,102	-200,000	-0,012	0,075
-514,087	-129,916	-0,164	0,016
-513,072	22,673	-0,057	-0,034
-512,058	72,916	0,035	0,027
-511,043	-93,606	0,073	0,015
-510,029	-104,810	-0,100	-0,017
-509,014	-82,820	-0,098	0,023
-507,999	800,000	0,033	-0,075
-506,985	164,118	-0,073	-0,076
-505,970	-14,201	0,057	0,027
-504,956	-37,778	0,018	-0,007
-503,941	2,149	0,096	-0,051
-502,926	-62,225	0,096	-0,029
-501,912	560,796	0,038	0,069
-500,897	800,000	-0,009	0,019
-499,883	800,000	-0,019	0,040
-498,868	335,929	-0,017	-0,024
-497,853	800,000	0,043	-0,089
-496,839	800,000	0,024	-0,063
-495,824	-157,909	-0,057	-0,002
-494,810	-14,513	-0,077	0,036
-493,795	34,002	0,077	0,049
-492,781	527,243	0,033	0,057
-491,766	-79,962	-0,125	0,031
-490,751	190,693	0,118	-0,131
-489,737	-200,000	0,011	-0,149
-488,722	-200,000	-0,023	0,106
-487,708	-70,407	-0,029	0,008
-486,693	20,260	-0,114	-0,067
-485,678	800,000	-0,043	-0,111
-484,664	-70,328	-0,129	-0,036
-483,649	50,261	-0,078	0,054
-482,635	616,639	-0,039	-0,072
-481,620	-200,000	-0,005	0,062
-480,605	-14,186	0,060	-0,028
-479,591	-200,000	-0,008	0,212
-478,576	350,686	0,045	0,066
-477,562	234,460	-0,090	-0,109
-476,547	175,081	-0,075	-0,080
-475,532	800,000	-0,082	-0,241
-474,518	-125,638	0,125	0,014
-473,503	16,101	-0,123	-0,071
-472,489	82,849	-0,021	0,017
-471,474	800,000	-0,036	0,082
-470,459	-123,442	-0,057	-0,007
-469,445	-200,000	0,013	-0,051
-468,430	13,027	0,060	0,034
-467,416	-10,357	0,043	0,021
-466,401	-200,000	-0,003	-0,047
-465,386	-105,267	-0,078	0,013
-464,372	800,000	0,024	-0,065
-463,357	-200,000	-0,011	-0,039
-462,343	-8,468	-0,066	-0,032
-461,328	166,403	-0,079	0,082
-460,313	270,703	-0,020	0,026
-459,299	454,280	-0,099	-0,163
-458,284	-200,000	-0,013	-0,048
-457,270	-200,000	0,046	-0,154
-456,255	-200,000	0,019	-0,099
-455,241	333,776	-0,035	-0,050
-454,226	35,072	0,049	-0,032
-453,211	547,803	0,041	0,073
-452,197	123,995	-0,062	0,058
-451,182	-94,435	-0,151	-0,030
-450,168	20,215	-0,127	0,075
-449,153	92,423	-0,048	0,039
-448,138	589,591	0,046	-0,083
-447,124	210,744	-0,075	-0,087
-446,109	800,000	-0,026	0,075
-445,095	144,261	0,038	0,037
-444,080	-160,720	0,109	-0,004
-443,065	93,010	0,018	0,015
-442,051	-200,000	0,007	0,103
-441,036	3,049	-0,010	-0,005
-440,022	-12,074	-0,126	-0,061
-439,007	-18,604	0,116	0,053
-437,992	-5,731	-0,095	-0,048
-436,978	-200,000	-0,014	-0,091
-435,963	-200,000	0,012	0,044
-434,949	467,244	0,113	0,187
-433,934	-63,177	-0,159	0,048
-432,919	800,000	-0,056	-0,129
-431,905	184,131	0,019	0,021
-430,890	-7,408	0,058	-0,029
-429,876	-200,000	0,021	-0,130
-428,861	800,000	-0,068	0,147
-427,846	800,000	-0,042	-0,087
-426,832	115,087	0,111	-0,099
-425,817	-200,000	0,019	-0,112
-424,803	126,725	0,042	-0,039
-423,788	-48,689	-0,079	0,028
-422,773	-69,445	0,021	0,006
-421,759	-140,443	-0,081	-0,006
-420,744	-88,100	0,020	0,004
-419,730	-59,322	0,111	0,035
-418,715	-200,000	0,016	-0,069
-417,701	-13,016	-0,047	0,022
-416,686	653,213	0,060	0,113
-415,671	-144,790	-0,070	0,005
-414,657	800,000	0,025	-0,062
-413,642	800,000	0,028	0,086
-412,628	-200,000	0,017	0,078
-411,613	-200,000	-0,002	0,070
-410,598	-95,984	-0,085	-0,016
-409,584	-67,334	0,072	-0,021
-408,569	-56,764	0,057	-0,019
-407,555	-200,000	0,003	-0,051
-406,540	6,447	-0,099	0,054
-405,525	800,000	-0,053	0,124
-404,511	-141,135	0,040	-0,003
-403,496	691,050	-0,052	-0,100
-402,482	-41,709	-0,018	-0,007
-401,467	-200,000	-0,006	0,083
-400,452	391,980	0,057	0,087
-399,438	147,610	0,027	-0,027
-398,423	800,000	0,038	0,107
-397,409	735,291	0,049	0,097
-396,394	-200,000	-0,007	-0,121
-395,379	800,000	-0,036	-0,078
-394,365	-9,719	-0,009	0,005
-393,350	37,935	0,152	0,099
-392,336	205,187	-0,057	0,065
-391,321	-97,736	-0,054	-0,010
-390,306	-200,000	-0,000	-0,067
-389,292	-200,000	0,146	0,000
-388,277	800,000	-0,030	-0,069
-387,263	732,521	-0,084	0,166
-386,248	-78,098	0,090	-0,023
-385,233	800,000	0,071	0,149
-384,219	-178,663	-0,057	-0,001
-383,204	800,000	0,027	0,078
-382,190	-200,000	-0,032	0,111
-381,175	-137,258	0,085	-0,007
-380,160	-111,179	0,137	0,020
-379,146	85,377	0,033	0,027
-378,131	255,896	-0,017	0,022
-377,117	699,054	0,040	0,078
-376,102	-75,066	-0,124	0,032
-375,088	-200,000	-0,018	-0,063
-374,073	670,112	-0,045	0,085
-373,058	372,550	-0,059	0,088
-372,044	-200,000	-0,012	0,071
-371,029	-3,680	0,022	0,011
-370,015	800,000	-0,042	-0,096
-369,000	82,377	0,065	0,052
-367,985	22,023	-0,145	-0,086
-366,971	-200,000	-0,009	-0,066
-365,956	800,000	0,032	0,097
-364,942	-200,000	-0,000	0,048
-363,927	137,874	0,074	-0,071
-362,912	-200,000	-0,005	-0,100
-361,898	366,505	-0,039	-0,058
-360,883	-200,000	-0,002	0,018
-359,869	330,773	0,054	-0,076
-358,854	-200,000	0,003	-0,046
-357,839	800,000	-0,063	0,136
-356,825	423,015	0,008	-0,013
-355,810	-1,023	0,013	0,007
-354,796	-126,613	-0,089	0,010
-353,781	-200,000	0,037	-0,126
-352,766	-19,218	-0,103	0,047
-351,752	800,000	0,022	-0,052
-350,737	-38,784	0,187	-0,072
-349,723	449,673	0,036	0,059
-348,708	-200,000	-0,008	0,032
-347,693	44,429	0,057	0,038
-346,679	800,000	0,011	-0,026
-345,664	295,404	-0,035	0,047
-344,650	-200,000	0,014	0,082
-343,635	137,385	0,128	0,122
-342,620	-168,759	-0,099	-0,003
-341,606	-66,861	-0,010	-0,003
-340,591	-200,000	-0,006	-0,027
-339,577	755,673	0,043	-0,085
-338,562	-58,218	-0,114	-0,036
-337,548	-200,000	0,014	-0,111
-336,533	-5,258	0,129	0,065
-335,518	83,227	-0,069	-0,055
-334,504	-33,303	0,100	0,040
-333,489	189,648	-0,021	-0,023
-332,475	63,730	0,058	0,043
-331,460	68,448	0,045	0,033
-330,445	370,067	-0,086	-0,127
-329,431	800,000	0,013	-0,037
-328,416	-200,000	0,015	0,168
-327,402	-200,000	0,003	0,046
-326,387	91,734	0,096	-0,079
-325,372	184,977	0,074	0,081
-324,358	194,867	0,021	-0,023
-323,343	-200,000	-0,002	-0,006
-322,329	360,707	0,056	0,082
-321,314	29,492	-0,046	0,029
-320,299	-109,489	0,121	-0,018
-319,285	628,811	0,064	0,118
-318,270	800,000	0,018	0,046
-317,256	-39,010	-0,105	-0,040
-316,241	375,464	-0,038	-0,056
-315,226	252,870	0,037	-0,046
-314,212	-96,924	0,119	0,023
-313,197	800,000	-0,024	-0,054
-312,183	537,481	-0,051	0,089
-311,168	-200,000	0,004	0,119
-310,153	154,782	-0,105	-0,106
-309,139	32,452	0,086	-0,054
-308,124	-7,464	-0,094	-0,046
-307,110	-159,599	-0,053	-0,002
-306,095	321,157	0,038	0,053
-305,080	196,914	0,048	-0,054
-304,066	-200,000	0,022	0,137
-303,051	800,000	-0,030	-0,061
-302,037	140,815	-0,023	0,022
-301,022	-9,266	-0,048	-0,023
-300,008	800,000	-0,040	0,106
-298,993	-113,884	-0,111	0,016
-297,978	800,000	0,014	-0,046
-296,964	-200,000	-0,004	0,213
-295,949	-158,000	0,058	-0,002
-294,935	-71,766	0,048	-0,013
-293,920	-144,812	0,091	-0,006
-292,905	-200,000	0,014	0,132
-291,891	152,471	-0,015	0,015
-290,876	15,161	0,036	0,021
-289,862	465,992	0,010	-0,017
-288,847	499,370	-0,074	-0,126
-287,832	39,438	-0,043	0,028
-286,818	696,021	0,058	0,112
-285,803	683,785	0,038	0,074
-284,789	109,048	-0,014	-0,012
-283,774	-200,000	0,018	0,181
-282,759	800,000	-0,021	0,064
-281,745	-200,000	-0,013	-0,142
-280,730	-41,696	0,128	0,048
-279,716	-200,000	-0,001	0,183
-278,701	-116,928	0,075	-0,010
-277,686	-86,912	0,144	0,032
-276,672	-200,000	0,007	-0,101
-275,657	793,418	-0,114	-0,229
-274,643	-200,000	-0,002	0,022
-273,628	800,000	0,025	-0,068
-272,613	364,362	0,073	-0,108
-271,599	-73,638	-0,124	0,033
-270,584	159,438	0,024	-0,025
-269,570	-200,000	0,010	0,120
-268,555	19,930	-0,179	-0,105
-267,540	453,178	0,047	0,076
-266,526	-200,000	0,012	-0,064
-265,511	-55,663	0,110	0,036
-264,497	40,673	0,154	-0,101
-263,482	169,662	-0,069	0,072
-262,467	98,856	0,097	-0,082
-261,453	800,000	0,045	-0,125
-260,438	-46,339	0,095	0,034
-259,424	-200,000	0,001	-0,110
-258,409	-200,000	0,027	-0,116
-257,395	259,909	0,050	-0,063
-256,380	-153,958	-0,052	-0,003
-255,365	-72,535	0,038	0,010
-254,351	188,330	0,060	0,066
-253,336	-200,000	0,017	0,090
-252,322	-200,000	0,040	0,155
-251,307	-0,487	0,024	0,012
-250,292	800,000	-0,045	0,142
-249,278	800,000	0,060	0,143
-248,263	-200,000	0,000	-0,085
-247,249	-200,000	-0,003	-0,032
-246,234	-200,000	0,007	0,059
-245,219	-82,691	-0,064	0,015
-244,205	800,000	-0,040	-0,084
-243,190	-16,081	-0,105	-0,048
-242,176	800,000	0,041	0,119
-241,161	-200,000	0,017	0,074
-240,146	-200,000	-0,019	0,088
-239,132	-200,000	0,020	0,104
-238,117	92,905	0,037	-0,030
-237,103	188,487	-0,126	-0,138
-236,088	-100,563	-0,136	0,024
-235,073	122,754	0,041	0,037
-234,059	-200,000	0,033	0,172
-233,044	-45,474	0,057	0,021
-232,030	540,940	-0,080	-0,140
-231,015	800,000	0,008	-0,018
-230,000	-69,518	-0,076	0,021
-228,986	-200,000	-0,007	-0,094
-227,971	327,742	-0,016	0,023
-226,957	-200,000	-0,034	0,137
-225,942	19,055	0,076	-0,045
-224,927	800,000	-0,014	0,035
-223,913	-5,792	0,062	0,031
-222,898	-22,690	-0,114	-0,050
-221,884	-66,546	-0,050	0,014
-220,869	184,299	0,055	0,059
-219,855	-200,000	0,042	0,134
-218,840	353,091	-0,041	0,059
-217,825	-200,000	0,002	0,039
-216,811	-65,551	-0,118	-0,034
-215,796	169,343	-0,091	0,095
-214,782	800,000	-0,048	-0,101
-213,767	-200,000	-0,007	-0,157
-212,752	117,887	0,124	-0,111
-211,738	111,193	-0,055	0,048
-210,723	366,358	-0,014	0,021
-209,709	-200,000	0,005	-0,062
-208,694	-137,421	0,096	0,008
-207,679	77,285	-0,040	-0,031
-206,665	163,725	-0,075	0,077
-205,650	800,000	0,033	0,085
-204,636	-200,000	0,011	0,106
-203,621	-109,292	0,053	0,008
-202,606	275,095	-0,083	-0,108
-201,592	-8,416	0,135	-0,066
-200,577	-200,000	-0,017	0,075
-199,563	-200,000	-0,035	0,128
-198,548	459,279	0,014	-0,023
-197,533	-46,388	-0,089	0,032
-196,519	450,774	-0,006	-0,009
-195,504	108,474	0,087	0,075
-194,490	400,023	-0,093	-0,142
-193,475	-200,000	0,009	-0,063
-192,460	405,060	0,069	-0,106
-191,446	42,410	0,170	-0,112
-190,431	-152,337	-0,123	-0,006
-189,417	92,155	-0,092	0,075
-188,402	314,800	-0,026	-0,036
-187,387	351,478	-0,123	-0,177
-186,373	-87,311	-0,081	0,018
-185,358	76,286	-0,092	-0,071
-184,344	800,000	0,032	0,084
-183,329	800,000	-0,046	0,108
-182,315	132,313	-0,015	-0,014
-181,300	485,567	-0,045	0,076
-180,285	-200,000	0,020	0,067
-179,271	-67,777	-0,002	0,001
-178,256	800,000	0,017	0,037
-177,242	-200,000	0,006	-0,043
-176,227	124,070	0,090	-0,082
-175,212	25,037	0,014	-0,008
-174,198	800,000	0,021	-0,064
-173,183	-200,000	-0,039	-0,147
-172,169	72,954	0,014	0,011
-171,154	-91,999	-0,133	-0,027
-170,139	-200,000	-0,003	0,118
-169,125	-164,876	-0,087	-0,003
-168,110	800,000	0,033	0,087
-167,096	-196,693	0,037	-0,000
-166,081	207,023	0,031	-0,035
-165,066	35,862	-0,116	-0,074
-164,052	-200,000	-0,004	0,023
-163,037	-200,000	-0,004	-0,080
-162,023	55,647	0,140	0,099
-161,008	800,000	0,033	0,072
-159,993	630,575	0,011	-0,020
-158,979	-35,574	-0,009	0,004
-157,964	259,215	-0,009	-0,012
-156,950	144,055	-0,024	0,023
-155,935	550,206	0,051	-0,090
-154,920	-200,000	-0,003	0,104
-153,906	143,716	0,135	0,131
-152,891	256,446	0,066	-0,082
-151,877	4,876	0,097	-0,052
-150,862	389,981	0,114	-0,173
-149,847	16,106	0,038	-0,022
-148,833	-91,134	-0,161	-0,033
-147,818	118,948	-0,040	-0,036
-146,804	-200,000	0,027	-0,093
-145,789	-174,487	-0,070	0,001
-144,775	-44,046	0,034	0,012
-143,760	800,000	-0,032	-0,097
-142,745	-200,000	-0,016	0,112
-141,731	-200,000	0,001	0,025
-140,716	6,034	0,055	0,029
-139,702	-200,000	-0,015	0,047
-138,687	800,000	-0,022	0,053
-137,672	-69,130	-0,163	-0,045
-136,658	2,388	0,089	-0,047
-135,643	-81,339	0,029	-0,007
-134,629	800,000	-0,061	-0,159
-133,614	353,304	0,034	-0,050
-132,599	402,868	0,054	0,083
-131,585	-2,567	0,082	-0,041
-130,570	-97,483	0,111	-0,021
-129,556	-200,000	0,025	-0,145
-128,541	91,609	-0,056	-0,046
-127,526	-200,000	0,002	-0,031
-126,512	800,000	0,053	0,154
-125,497	-99,300	-0,077	0,014
-124,483	-50,778	0,116	-0,039
-123,468	800,000	-0,024	0,052
-122,453	-49,836	0,051	0,017
-121,439	73,192	0,128	-0,097
-120,424	-200,000	0,012	-0,117
-119,410	-200,000	-0,019	0,066
-118,395	-40,477	-0,125	0,047
