DTS Sentinel unit serial number:	SN410029Multiplexer serial number:	ORYXHardware model number:	OX2-SRSoftware version number:	ORYX F/W v4,00 Oryx Data Collector v3.7.2.0data status	okinstallation	B6 Nyhavnadifferential loss correction	single-endedforward channel	channel 2reverse channel	N/Adate	2023/12/07time	17:00:08forward acquisition time	300,00reverse acquisition time	0,00gamma	499,1914k internal	0,3164k external	0,3164temperature offset calibration	1,0000default loss term (dB/km)	0,3820temperature slope calibration	1,0000multiplexer offset coefficient	1,0000multiplexer slope coefficient	1,0000fibre end	0,00T internal ref (°C)	14,50T ext. ref 1 (°C)	-2,26T ext. ref 2 (°C)	-2,27length (m)	temperature (°C)	Stokes	anti-Stokes-744,400	22,801	0,236	-0,142
-743,385	-38,749	-0,171	0,066
-742,371	797,866	0,054	0,109
-741,356	-112,268	-0,271	-0,040
-740,342	56,541	0,130	-0,093
-739,327	-103,371	-0,292	-0,050
-738,312	-114,304	-0,122	0,017
-737,298	-64,978	-0,191	0,056
-736,283	56,004	0,101	-0,072
-735,269	-92,046	-0,344	0,071
-734,254	30,850	0,113	0,071
-733,239	25,854	-0,430	-0,263
-732,225	-141,685	0,133	-0,010
-731,210	124,466	-0,093	0,086
-730,196	800,000	-0,044	0,104
-729,181	311,028	-0,045	-0,062
-728,167	333,440	0,069	-0,099
-727,152	-200,000	0,028	0,097
-726,137	74,023	-0,160	-0,124
-725,123	-193,703	-0,148	0,001
-724,108	-49,270	-0,030	-0,010
-723,094	82,780	-0,102	-0,082
-722,079	-43,820	-0,113	-0,042
-721,064	-31,467	-0,112	0,046
-720,050	-90,399	0,153	-0,032
-719,035	800,000	0,014	-0,040
-718,021	247,482	-0,055	-0,069
-717,006	800,000	0,010	0,026
-715,991	26,071	0,092	0,056
-714,977	272,119	-0,106	-0,137
-713,962	751,293	0,031	0,062
-712,948	-200,000	0,011	0,052
-711,933	339,636	-0,022	0,032
-710,918	-200,000	0,031	0,160
-709,904	-140,806	0,121	-0,009
-708,889	-200,000	-0,014	-0,114
-707,875	-200,000	-0,016	-0,198
-706,860	157,190	-0,056	-0,057
-705,845	-42,426	-0,087	-0,032
-704,831	-98,173	-0,069	0,013
-703,816	233,255	-0,023	0,028
-702,802	-130,343	-0,134	0,013
-701,787	182,796	-0,059	0,064
-700,772	800,000	0,016	-0,038
-699,758	-200,000	0,019	0,123
-698,743	-200,000	0,012	0,130
-697,729	800,000	0,030	-0,063
-696,714	-200,000	0,013	0,062
-695,699	-76,607	0,017	-0,004
-694,685	384,344	-0,067	0,102
-693,670	300,616	-0,040	0,055
-692,656	-131,803	0,017	0,002
-691,641	-3,841	0,078	0,040
-690,627	174,812	0,119	-0,127
-689,612	597,473	-0,078	0,143
-688,597	169,725	-0,012	0,012
-687,583	605,408	-0,033	-0,061
-686,568	115,076	0,026	0,023
-685,554	-55,906	-0,071	0,023
-684,539	-36,099	0,023	-0,009
-683,524	-200,000	-0,026	0,140
-682,510	-11,131	0,060	0,029
-681,495	505,815	0,053	-0,091
-680,481	20,840	-0,190	0,113
-679,466	-56,070	-0,061	0,020
-678,451	-95,213	0,074	0,014
-677,437	-44,758	0,113	0,041
-676,422	-200,000	0,057	0,187
-675,408	212,686	-0,012	0,014
-674,393	-79,432	-0,109	-0,027
-673,378	579,156	-0,076	0,137
-672,364	-134,231	-0,104	-0,009
-671,349	-40,317	-0,150	-0,057
-670,335	1,090	0,062	-0,032
-669,320	60,259	-0,089	0,064
-668,305	76,186	0,051	-0,040
-667,291	228,639	0,071	0,084
-666,276	-52,471	-0,165	-0,056
-665,262	800,000	0,018	0,038
-664,247	-96,706	-0,123	0,023
-663,232	246,160	-0,056	-0,069
-662,218	800,000	-0,021	-0,043
-661,203	616,106	0,033	0,061
-660,189	-200,000	-0,008	-0,105
-659,174	-45,923	-0,111	-0,040
-658,159	-142,780	-0,108	0,008
-657,145	676,693	-0,045	0,086
-656,130	800,000	0,053	0,113
-655,116	-33,954	-0,086	0,034
-654,101	315,311	0,044	0,062
-653,086	-80,830	0,014	-0,003
-652,072	800,000	0,020	0,047
-651,057	-200,000	0,016	-0,080
-650,043	206,040	-0,067	-0,076
-649,028	62,518	0,056	-0,041
-648,014	800,000	-0,046	0,102
-646,999	119,035	0,053	0,048
-645,984	368,544	0,024	0,035
-644,970	-200,000	-0,018	-0,109
-643,955	-40,870	-0,140	-0,053
-642,941	85,658	0,129	-0,104
-641,926	301,444	0,039	0,053
-640,911	-68,615	-0,108	-0,031
-639,897	378,978	0,011	-0,017
-638,882	-60,403	0,136	-0,042
-637,868	-55,327	-0,183	-0,060
-636,853	-196,680	0,039	-0,000
-635,838	372,682	-0,077	-0,115
-634,824	517,740	0,041	-0,070
-633,809	-62,864	0,073	0,022
-632,795	800,000	-0,017	-0,037
-631,780	-161,637	0,104	0,004
-630,765	-47,568	-0,046	-0,016
-629,751	-200,000	-0,019	0,070
-628,736	193,418	0,012	-0,014
-627,722	-200,000	-0,009	0,046
-626,707	257,515	0,100	-0,127
-625,692	-15,373	-0,089	0,041
-624,678	-200,000	0,010	-0,053
-623,663	-104,046	-0,059	-0,010
-622,649	-200,000	-0,031	-0,179
-621,634	-11,339	-0,153	-0,073
-620,619	800,000	-0,034	0,094
-619,605	83,975	-0,020	-0,016
-618,590	-200,000	-0,019	0,082
-617,576	-149,729	-0,119	0,007
-616,561	-200,000	0,002	-0,039
-615,546	743,647	-0,051	-0,100
-614,532	83,763	-0,137	-0,109
-613,517	-79,112	-0,072	0,018
-612,503	185,504	-0,042	-0,046
-611,488	41,731	0,068	0,045
-610,474	-120,287	-0,120	-0,015
-609,459	-120,415	-0,059	0,007
-608,444	800,000	-0,023	-0,054
-607,430	17,990	-0,069	0,040
-606,415	-200,000	-0,024	-0,141
-605,401	-162,919	0,103	0,004
-604,386	-178,799	-0,024	-0,000
-603,371	-10,786	0,089	-0,043
-602,357	-131,715	-0,065	0,006
-601,342	-61,354	-0,109	-0,033
-600,328	679,553	0,038	-0,073
-599,313	-200,000	-0,008	-0,066
-598,298	800,000	0,024	-0,054
-597,284	-11,914	0,249	0,119
-596,269	68,171	-0,094	-0,071
-595,255	-200,000	-0,013	0,083
-594,240	-10,066	0,068	-0,033
-593,225	-135,717	-0,113	-0,010
-592,211	-200,000	-0,021	-0,076
-591,196	200,750	-0,058	-0,065
-590,182	25,606	-0,046	0,028
-589,167	-103,399	0,085	0,014
-588,152	29,164	0,031	0,019
-587,138	30,678	0,054	-0,034
-586,123	205,953	-0,050	0,057
-585,109	-125,284	0,091	0,010
-584,094	-176,894	0,086	0,002
-583,079	354,733	0,043	0,063
-582,065	112,339	0,058	0,051
-581,050	16,497	-0,028	0,016
-580,036	-61,564	0,085	0,026
-579,021	-25,317	0,033	0,014
-578,006	-194,826	-0,151	-0,001
-576,992	47,170	0,124	0,084
-575,977	800,000	0,017	0,050
-574,963	-63,813	-0,144	-0,043
-573,948	800,000	0,001	0,004
-572,934	-200,000	-0,007	0,046
-571,919	800,000	-0,020	-0,054
-570,904	-200,000	-0,007	-0,109
-569,890	170,452	-0,025	-0,026
-568,875	-73,368	-0,061	0,016
-567,861	800,000	-0,066	0,174
-566,846	-200,000	-0,033	0,158
-565,831	-94,903	-0,052	-0,010
-564,817	137,931	-0,106	-0,101
-563,802	-79,103	0,031	-0,008
-562,788	-8,563	-0,193	-0,095
-561,773	-200,000	0,012	-0,067
-560,758	469,312	0,023	0,038
-559,744	-200,000	-0,015	0,051
-558,729	-7,660	0,073	-0,036
-557,715	312,444	-0,089	0,122
-556,700	-200,000	-0,018	-0,082
-555,685	386,659	0,040	-0,061
-554,671	-100,027	-0,081	0,015
-553,656	100,908	0,066	0,056
-552,642	365,879	0,028	-0,041
-551,627	800,000	-0,044	0,114
-550,612	-200,000	0,016	-0,061
-549,598	-57,302	0,013	-0,004
-548,583	-185,657	-0,063	0,001
-547,569	354,552	-0,077	-0,112
-546,554	116,836	0,111	0,100
-545,539	56,985	-0,110	0,078
-544,525	138,902	0,103	-0,099
-543,510	-3,083	-0,082	0,042
-542,496	800,000	-0,025	-0,065
-541,481	800,000	0,035	-0,080
-540,466	-200,000	-0,018	0,082
-539,452	287,615	0,059	0,078
-538,437	-200,000	0,005	-0,056
-537,423	354,053	-0,040	-0,059
-536,408	-200,000	0,002	-0,099
-535,393	800,000	-0,038	-0,098
-534,379	39,427	-0,068	-0,044
-533,364	625,379	-0,004	-0,007
-532,350	800,000	0,033	0,067
-531,335	38,369	0,104	-0,067
-530,321	147,378	-0,163	0,160
-529,306	-200,000	0,093	0,000
-528,291	-128,154	-0,072	0,007
-527,277	-181,148	-0,094	0,001
-526,262	-103,430	0,122	-0,021
-525,248	109,558	0,032	0,028
-524,233	800,000	0,051	0,115
-523,218	-200,000	-0,006	0,083
-522,204	314,115	-0,018	-0,025
-521,189	305,279	-0,061	-0,083
-520,175	2,313	-0,103	-0,054
-519,160	-8,847	0,121	-0,059
-518,145	-129,238	-0,064	0,006
-517,131	2,844	-0,163	0,086
-516,116	-200,000	0,031	0,100
-515,102	356,937	-0,044	-0,065
-514,087	-200,000	0,019	-0,075
-513,072	41,231	-0,040	-0,027
-512,058	32,601	0,054	0,034
-511,043	72,895	0,204	0,155
-510,029	-200,000	0,017	-0,114
-509,014	800,000	0,030	-0,071
-507,999	-86,281	-0,112	0,025
-506,985	-165,374	0,060	0,002
-505,970	800,000	0,061	-0,134
-504,956	-109,700	0,136	-0,021
-503,941	-64,509	0,175	0,051
-502,926	800,000	0,068	0,199
-501,912	172,601	0,048	0,050
-500,897	-180,107	0,095	0,001
-499,883	-132,250	-0,040	-0,004
-498,868	-40,256	-0,232	-0,087
-497,853	357,066	0,058	-0,085
-496,839	-171,435	0,097	0,002
-495,824	-200,000	0,003	0,088
-494,810	-200,000	-0,015	0,052
-493,795	-60,284	0,091	0,028
-492,781	800,000	-0,039	-0,080
-491,766	-200,000	-0,036	-0,153
-490,751	-20,011	-0,157	0,070
-489,737	-115,080	0,114	0,016
-488,722	-40,360	0,121	0,045
-487,708	800,000	-0,031	0,079
-486,693	-165,606	0,060	0,002
-485,678	6,319	-0,046	-0,025
-484,664	53,949	-0,079	0,055
-483,649	-76,011	-0,155	0,040
-482,635	25,791	0,044	-0,027
-481,620	-100,982	0,138	0,024
-480,605	-200,000	-0,011	-0,040
-479,591	-200,000	0,005	0,129
-478,576	336,671	-0,040	-0,057
-477,562	-200,000	0,005	-0,104
-476,547	-200,000	-0,003	-0,108
-475,532	800,000	-0,014	-0,034
-474,518	-13,156	-0,116	-0,055
-473,503	-129,225	0,056	-0,006
-472,489	309,569	0,018	-0,024
-471,474	16,577	0,059	0,034
-470,459	-150,710	0,061	-0,003
-469,445	225,307	0,051	0,060
-468,430	-143,706	0,074	-0,005
-467,416	-200,000	-0,004	-0,167
-466,401	483,448	0,016	-0,027
-465,386	14,799	0,060	0,034
-464,372	-102,558	0,080	0,014
-463,357	11,190	0,100	0,056
-462,343	172,338	0,046	0,048
-461,328	712,271	0,044	0,085
-460,313	-158,535	0,030	0,001
-459,299	-110,660	-0,036	0,005
-458,284	673,143	-0,021	0,040
-457,270	-143,883	0,152	0,010
-456,255	-200,000	-0,002	0,129
-455,241	-33,671	-0,061	0,025
-454,226	169,827	0,028	-0,029
-453,211	-200,000	0,029	0,111
-452,197	118,724	0,052	0,047
-451,182	112,533	0,071	0,063
-450,168	800,000	-0,035	0,093
-449,153	-200,000	0,025	0,130
-448,138	152,134	-0,040	0,040
-447,124	129,066	0,121	-0,112
-446,109	-24,864	0,121	-0,052
-445,095	-100,850	0,146	0,026
-444,080	-200,000	-0,006	0,185
-443,065	204,145	0,064	-0,072
-442,051	-200,000	0,015	-0,051
-441,036	-74,543	-0,076	0,020
-440,022	-105,204	0,048	0,008
-439,007	132,607	-0,048	0,045
-437,992	-42,643	0,191	0,070
-436,978	-60,330	0,100	-0,031
-435,963	588,142	-0,019	-0,035
-434,949	-66,686	0,166	-0,047
-433,934	154,373	-0,169	-0,169
-432,919	0,656	-0,093	0,048
-431,905	271,630	-0,017	0,021
-430,890	271,248	-0,021	-0,027
-429,876	231,496	0,040	-0,048
-428,861	-91,210	0,021	0,004
-427,846	-200,000	0,042	-0,169
-426,832	328,104	-0,049	-0,069
-425,817	800,000	-0,033	0,072
-424,803	-200,000	0,011	0,098
-423,788	-166,182	-0,074	-0,002
-422,773	154,324	0,077	-0,077
-421,759	-10,911	0,083	0,040
-420,744	-200,000	0,053	0,000
-419,730	800,000	0,040	0,092
-418,715	660,045	0,030	-0,056
-417,701	433,149	0,074	-0,118
-416,686	-76,365	0,128	0,032
-415,671	156,137	-0,072	-0,072
-414,657	-200,000	0,025	0,099
-413,642	159,331	0,079	0,080
-412,628	348,851	0,041	-0,059
-411,613	57,742	-0,037	-0,026
-410,598	113,704	-0,014	-0,012
-409,584	221,781	0,065	-0,076
-408,569	108,690	-0,009	0,007
-407,555	-86,130	0,042	-0,009
-406,540	186,898	-0,128	-0,139
-405,525	328,644	-0,034	-0,047
-404,511	800,000	-0,020	-0,060
-403,496	275,714	-0,059	0,077
-402,482	-41,368	-0,093	0,035
-401,467	303,416	0,081	0,109
-400,452	-200,000	0,013	-0,136
-399,438	-51,903	0,045	-0,015
-398,423	-200,000	-0,005	-0,084
-397,409	37,759	0,045	-0,029
-396,394	493,054	-0,034	-0,057
-395,379	-114,363	0,189	0,026
-394,365	461,145	0,056	0,091
-393,350	-177,267	0,035	-0,001
-392,336	-66,417	0,055	0,016
-391,321	78,401	-0,023	-0,018
-390,306	-200,000	-0,008	-0,051
-389,292	5,828	-0,131	-0,070
-388,277	-200,000	0,035	0,135
-387,263	-200,000	-0,001	0,094
-386,248	592,782	-0,086	0,155
-385,233	-97,538	0,085	-0,016
-384,219	53,252	-0,032	0,022
-383,204	-91,546	0,083	-0,017
-382,190	329,285	-0,060	-0,084
-381,175	800,000	-0,045	0,105
-380,160	69,615	0,083	-0,062
-379,146	58,435	-0,046	0,033
-378,131	800,000	-0,012	-0,025
-377,117	253,460	0,002	-0,003
-376,102	154,236	0,038	-0,038
-375,088	30,703	-0,075	0,047
-374,073	49,476	-0,076	-0,052
-373,058	800,000	-0,055	-0,122
-372,044	239,902	0,052	0,063
-371,029	167,626	0,009	-0,009
-370,015	30,432	-0,097	-0,060
-369,000	-200,000	-0,015	-0,094
-367,985	401,311	0,055	-0,085
-366,971	-200,000	-0,003	-0,107
-365,956	-10,967	-0,059	-0,028
-364,942	240,189	-0,047	-0,057
-363,927	-143,882	0,100	0,007
-362,912	-200,000	-0,008	0,067
-361,898	115,334	-0,030	-0,027
-360,883	-118,928	-0,082	0,010
-359,869	-186,677	0,090	0,001
-358,854	755,261	0,055	-0,109
-357,839	-200,000	-0,012	0,047
-356,825	321,809	-0,064	0,089
-355,810	800,000	0,058	0,183
-354,796	179,643	-0,096	0,102
-353,781	-200,000	-0,003	-0,043
-352,766	800,000	0,029	-0,088
-351,752	-35,674	0,115	0,045
-350,737	18,287	-0,062	0,036
-349,723	14,175	-0,076	0,043
-348,708	233,965	-0,075	0,090
-347,693	-200,000	-0,010	-0,068
-346,679	577,819	0,007	-0,012
-345,664	-200,000	-0,015	-0,070
-344,650	800,000	-0,053	0,129
-343,635	26,605	-0,083	-0,050
-342,620	36,344	0,133	0,085
-341,606	33,736	-0,124	-0,078
-340,591	-200,000	0,025	-0,140
-339,577	-200,000	-0,007	-0,026
-338,562	800,000	0,012	-0,039
-337,548	-200,000	-0,006	-0,032
-336,533	-200,000	-0,014	0,116
-335,518	334,249	0,082	0,115
-334,504	-84,734	-0,080	-0,018
-333,489	209,514	0,027	-0,031
-332,475	401,155	0,044	0,067
-331,460	800,000	-0,059	-0,134
-330,445	800,000	-0,007	0,019
-329,431	800,000	0,063	0,161
-328,416	800,000	-0,010	0,022
-327,402	-79,328	0,072	0,018
-326,387	-200,000	-0,003	-0,075
-325,372	19,784	-0,062	0,036
-324,358	-200,000	-0,007	-0,125
-323,343	-200,000	0,005	0,044
-322,329	76,729	0,059	0,045
-321,314	-103,672	0,034	0,006
-320,299	325,440	-0,104	0,144
-319,285	800,000	0,052	-0,165
-318,270	-200,000	-0,005	-0,027
-317,256	800,000	-0,019	-0,047
-316,241	-45,634	0,069	0,025
-315,226	800,000	-0,022	0,044
-314,212	-114,468	0,075	-0,010
-313,197	411,579	0,023	0,035
-312,183	-200,000	0,035	0,215
-311,168	-200,000	0,012	-0,050
-310,153	34,796	-0,125	-0,079
-309,139	-200,000	0,001	-0,023
-308,124	-50,045	-0,038	0,013
-307,110	800,000	-0,028	0,084
-306,095	800,000	0,014	-0,042
-305,080	-106,399	0,065	-0,010
-304,066	2,553	0,064	-0,033
-303,051	625,752	-0,100	0,184
-302,037	-190,463	-0,123	-0,001
-301,022	-132,998	0,162	-0,015
-300,008	-200,000	0,004	-0,039
-298,993	-200,000	-0,018	0,174
-297,978	-200,000	-0,011	0,054
-296,964	-64,606	-0,070	0,021
-295,949	-55,826	0,044	-0,014
-294,935	800,000	0,017	-0,041
-293,920	153,383	-0,082	-0,081
-292,905	-200,000	0,000	-0,078
-291,891	-9,215	0,083	0,040
-290,876	-45,150	-0,099	-0,035
-289,862	180,489	-0,063	0,067
-288,847	226,501	0,074	-0,087
-287,832	188,275	-0,087	-0,094
-286,818	800,000	-0,049	-0,149
-285,803	166,357	-0,060	-0,061
-284,789	202,006	-0,058	0,065
-283,774	800,000	0,019	-0,039
-282,759	-200,000	0,005	0,041
-281,745	56,632	-0,070	0,049
-280,730	-182,551	-0,220	0,003
-279,716	61,884	-0,024	-0,017
-278,701	3,810	0,131	-0,069
-277,686	544,374	0,021	0,036
-276,672	-200,000	-0,028	0,136
-275,657	249,282	-0,018	-0,023
-274,643	407,025	-0,040	0,061
-273,628	-200,000	-0,024	-0,201
-272,613	-46,184	0,065	0,023
-271,599	-86,064	0,100	-0,022
-270,584	800,000	0,040	0,094
-269,570	215,904	-0,065	0,075
-268,555	800,000	0,034	0,106
-267,540	708,283	0,041	-0,079
-266,526	-200,000	-0,024	-0,077
-265,511	480,602	0,114	0,187
-264,497	-200,000	0,004	0,110
-263,482	800,000	0,034	-0,102
-262,467	435,762	0,019	-0,030
-261,453	-82,939	-0,084	0,019
-260,438	-102,739	-0,095	-0,016
-259,424	304,642	-0,061	-0,081
-258,409	-171,998	0,131	-0,003
-257,395	800,000	-0,063	0,128
-256,380	-66,887	-0,038	0,011
-255,365	800,000	0,020	0,050
-254,351	-200,000	-0,015	-0,080
-253,336	223,979	-0,099	0,115
-252,322	-98,351	-0,028	-0,005
-251,307	87,823	-0,124	-0,099
-250,292	800,000	0,056	-0,159
-249,278	-88,287	0,080	0,017
-248,263	-200,000	0,005	0,066
-247,249	-200,000	-0,050	0,171
-246,234	114,977	-0,105	-0,092
-245,219	-200,000	0,001	0,061
-244,205	-21,504	0,109	-0,048
-243,190	-11,394	0,082	-0,039
-242,176	800,000	0,022	-0,061
-241,161	214,067	-0,037	-0,043
-240,146	160,643	0,125	0,126
-239,132	-177,816	0,034	0,001
-238,117	158,436	-0,104	-0,104
-237,103	309,962	-0,026	-0,035
-236,088	182,400	0,050	0,054
-235,073	-200,000	-0,012	0,088
-234,059	-11,100	-0,032	-0,015
-233,044	218,287	-0,092	0,106
-232,030	760,244	-0,067	-0,132
-231,015	-200,000	0,001	-0,064
-230,000	144,676	-0,073	-0,070
-228,986	4,502	0,107	-0,056
-227,971	-200,000	-0,000	-0,025
-226,957	-148,626	0,089	-0,005
-225,942	-108,300	-0,155	0,024
-224,927	-141,255	-0,059	-0,004
-223,913	-147,375	0,034	-0,002
-222,898	-113,994	0,041	-0,006
-221,884	63,181	0,121	-0,087
-220,869	284,794	0,038	-0,050
-219,855	263,657	-0,061	-0,077
-218,840	800,000	0,029	0,089
-217,825	-24,747	0,067	-0,028
-216,811	-120,213	-0,071	-0,009
-215,796	50,456	-0,029	0,020
-214,782	-113,377	0,131	0,018
-213,767	-200,000	-0,018	0,084
-212,752	-200,000	-0,022	0,194
-211,738	183,016	0,050	0,053
-210,723	59,788	-0,066	0,047
-209,709	-200,000	0,030	0,171
-208,694	736,938	-0,028	0,055
-207,679	-55,453	0,105	0,034
-206,665	150,124	-0,046	-0,045
-205,650	800,000	-0,008	-0,016
-204,636	800,000	0,053	-0,112
-203,621	-108,376	-0,101	0,015
-202,606	800,000	0,047	0,104
-201,592	21,244	-0,050	-0,029
-200,577	395,935	0,040	-0,060
-199,563	-200,000	-0,018	0,108
-198,548	-169,282	0,176	0,005
-197,533	-200,000	0,005	0,147
-196,519	405,245	0,035	-0,053
-195,504	758,551	-0,060	-0,117
-194,490	163,674	-0,072	0,073
-193,475	-200,000	0,031	-0,117
-192,460	636,267	-0,035	-0,064
-191,446	-113,346	-0,046	0,006
-190,431	-115,727	-0,073	0,010
-189,417	42,947	-0,110	-0,072
-188,402	-138,682	-0,025	-0,002
-187,387	337,662	-0,046	-0,065
-186,373	137,471	0,082	0,078
-185,358	14,622	0,080	-0,045
-184,344	-81,336	0,135	-0,032
-183,329	-20,139	-0,062	0,027
-182,315	94,538	-0,076	0,062
-181,300	800,000	-0,051	0,154
-180,285	-56,132	0,085	-0,027
-179,271	62,174	-0,137	0,098
-178,256	-65,133	-0,111	-0,032
-177,242	29,800	-0,040	0,025
-176,227	26,894	-0,042	-0,025
-175,212	170,876	0,059	-0,061
-174,198	-200,000	-0,006	0,026
-173,183	42,090	0,062	-0,041
-172,169	-128,312	-0,073	0,007
-171,154	-102,734	0,065	-0,011
-170,139	-200,000	-0,005	0,024
-169,125	-200,000	0,022	0,098
-168,110	800,000	-0,056	0,114
-167,096	23,278	-0,046	0,027
-166,081	-200,000	0,022	-0,074
-165,066	-200,000	0,005	0,034
-164,052	-61,550	-0,015	-0,005
-163,037	-129,243	0,023	0,002
-162,023	-200,000	-0,011	0,037
-161,008	193,166	0,081	-0,088
-159,993	792,003	0,033	0,066
-158,979	122,130	-0,035	0,031
-157,964	-200,000	-0,006	-0,042
-156,950	800,000	-0,030	0,087
-155,935	-54,951	0,098	0,032
-154,920	328,450	-0,008	0,011
-153,906	800,000	0,033	0,105
-152,891	21,471	-0,055	-0,032
-151,877	319,351	0,077	0,106
-150,862	800,000	-0,026	-0,075
-149,847	-117,345	-0,096	-0,012
-148,833	433,673	-0,088	-0,138
-147,818	-200,000	-0,005	0,069
-146,804	155,744	0,127	-0,126
-145,789	381,236	0,064	0,095
-144,775	-52,561	-0,046	0,015
-143,760	-200,000	-0,003	0,012
-142,745	26,985	-0,089	-0,053
-141,731	267,227	-0,025	-0,032
-140,716	-49,643	0,086	-0,029
-139,702	104,755	0,097	-0,082
-138,687	-12,158	-0,131	0,061
-137,672	60,302	-0,079	-0,056
-136,658	-200,000	-0,053	-0,176
-135,643	-200,000	-0,000	-0,142
-134,629	-200,000	0,006	-0,040
-133,614	800,000	0,008	-0,021
-132,599	-4,928	0,134	-0,066
-131,585	-45,713	0,260	-0,092
-130,570	-33,449	-0,028	-0,011
-129,556	-200,000	-0,004	0,031
-128,541	-200,000	-0,017	-0,121
-127,526	-148,869	0,116	0,007
-126,512	-93,456	-0,055	-0,011
-125,497	-200,000	-0,007	0,127
-124,483	523,903	0,051	0,086
-123,468	-200,000	-0,007	-0,036
-122,453	-111,240	0,031	-0,005
-121,439	800,000	0,020	-0,064
-120,424	-81,328	0,115	-0,027
