DTS Sentinel unit serial number:	SN410029Multiplexer serial number:	ORYXHardware model number:	OX2-SRSoftware version number:	ORYX F/W v4,00 Oryx Data Collector v3.7.2.0data status	okinstallation	B6 Nyhavnadifferential loss correction	single-endedforward channel	channel 2reverse channel	N/Adate	2023/12/11time	01:35:08forward acquisition time	300,00reverse acquisition time	0,00gamma	499,1914k internal	0,3122k external	0,3122temperature offset calibration	1,0000default loss term (dB/km)	0,3820temperature slope calibration	1,0000multiplexer offset coefficient	1,0000multiplexer slope coefficient	1,0000fibre end	0,00T internal ref (°C)	22,07T ext. ref 1 (°C)	5,32T ext. ref 2 (°C)	5,35length (m)	temperature (°C)	Stokes	anti-Stokes-744,400	-127,552	-0,096	-0,010
-743,385	-44,060	-0,268	0,100
-742,371	302,353	0,062	0,086
-741,356	662,124	-0,142	0,273
-740,342	-37,048	0,098	0,039
-739,327	-57,351	-0,257	0,084
-738,312	-200,000	-0,001	-0,043
-737,298	158,178	-0,124	0,128
-736,283	-200,000	0,014	-0,053
-735,269	-177,590	-0,216	0,004
-734,254	393,203	0,044	-0,068
-733,239	-111,413	-0,429	0,064
-732,225	800,000	0,045	0,107
-731,210	-42,544	-0,052	0,019
-730,196	-40,672	0,142	0,055
-729,181	-147,477	-0,121	0,008
-728,167	-200,000	-0,000	0,051
-727,152	67,358	0,029	-0,022
-726,137	-143,902	-0,051	-0,004
-725,123	-200,000	-0,004	0,068
-724,108	-129,059	-0,180	0,019
-723,094	-52,136	-0,120	-0,041
-722,079	-118,485	0,027	-0,004
-721,064	312,920	0,044	0,061
-720,050	-97,714	0,099	-0,019
-719,035	-200,000	0,023	-0,189
-718,021	800,000	0,040	-0,092
-717,006	-200,000	-0,000	-0,047
-715,991	674,987	-0,031	-0,060
-714,977	800,000	0,025	-0,076
-713,962	-200,000	-0,006	-0,024
-712,948	119,701	0,078	0,072
-711,933	-162,307	0,061	-0,002
-710,918	668,664	-0,073	-0,142
-709,904	-146,053	-0,133	-0,009
-708,889	-170,605	-0,023	0,001
-707,875	31,754	-0,068	-0,044
-706,860	-99,986	0,085	0,016
-705,845	-200,000	-0,001	-0,091
-704,831	289,721	0,040	-0,055
-703,816	-200,000	0,021	-0,077
-702,802	-174,055	-0,063	0,001
-701,787	800,000	-0,088	-0,198
-700,772	800,000	0,029	-0,069
-699,758	-121,313	-0,172	0,021
-698,743	283,424	0,087	0,117
-697,729	114,971	0,040	0,036
-696,714	205,804	0,067	0,077
-695,699	800,000	-0,025	-0,072
-694,685	-200,000	-0,041	-0,197
-693,670	-51,884	0,031	-0,011
-692,656	800,000	0,017	0,035
-691,641	28,257	-0,054	-0,034
-690,627	273,244	-0,034	0,044
-689,612	358,393	-0,106	-0,158
-688,597	-200,000	0,005	-0,019
-687,583	-129,280	0,100	-0,010
-686,568	-70,880	-0,077	0,021
-685,554	-27,792	0,070	0,030
-684,539	-104,283	0,062	0,011
-683,524	501,595	0,039	-0,067
-682,510	730,878	0,053	-0,105
-681,495	131,911	-0,050	-0,047
-680,481	-90,097	-0,155	0,033
-679,466	-200,000	-0,015	-0,088
-678,451	-200,000	0,031	-0,123
-677,437	133,845	0,066	0,064
-676,422	-200,000	-0,016	0,122
-675,408	-200,000	0,017	-0,131
-674,393	-129,669	0,115	0,012
-673,378	194,363	-0,050	-0,056
-672,364	-200,000	-0,011	-0,054
-671,349	800,000	-0,071	-0,191
-670,335	127,704	0,039	-0,037
-669,320	576,679	0,145	0,264
-668,305	-200,000	-0,008	0,057
-667,291	137,075	0,111	0,108
-666,276	800,000	-0,029	0,064
-665,262	134,500	-0,062	0,060
-664,247	191,828	-0,026	-0,029
-663,232	-25,531	-0,102	0,045
-662,218	800,000	-0,016	0,042
-661,203	394,750	0,030	-0,047
-660,189	157,197	0,091	-0,093
-659,174	-200,000	0,011	-0,073
-658,159	-200,000	-0,017	-0,077
-657,145	-200,000	-0,020	-0,128
-656,130	800,000	-0,039	-0,107
-655,116	-62,169	0,102	-0,031
-654,101	-146,791	0,042	0,003
-653,086	125,123	-0,060	0,057
-652,072	79,974	-0,057	-0,045
-651,057	800,000	-0,050	-0,134
-650,043	199,017	-0,061	0,069
-649,028	-200,000	0,001	-0,102
-648,014	717,779	0,042	-0,084
-646,999	349,281	0,053	0,077
-645,984	38,268	0,039	-0,026
-644,970	800,000	-0,019	-0,043
-643,955	-200,000	-0,019	-0,106
-642,941	-200,000	0,029	0,133
-641,926	-30,516	-0,101	0,042
-640,911	-200,000	0,012	0,078
-639,897	183,354	0,006	0,006
-638,882	81,441	-0,093	0,074
-637,868	-19,083	0,057	0,026
-636,853	-75,001	-0,027	-0,007
-635,838	-200,000	0,003	0,016
-634,824	-95,001	-0,090	0,018
-633,809	125,052	0,055	0,052
-632,795	800,000	-0,036	-0,105
-631,780	-200,000	-0,019	0,078
-630,765	65,510	-0,014	0,011
-629,751	-119,010	-0,094	0,012
-628,736	-69,455	-0,122	0,035
-627,722	800,000	0,046	-0,113
-626,707	643,587	0,006	0,012
-625,692	191,816	-0,033	-0,037
-624,678	-200,000	-0,010	-0,040
-623,663	2,472	-0,069	-0,037
-622,649	425,792	-0,067	0,107
-621,634	800,000	0,016	-0,033
-620,619	413,152	0,030	-0,048
-619,605	-51,971	0,050	-0,017
-618,590	800,000	-0,020	-0,061
-617,576	35,027	0,064	0,041
-616,561	54,408	-0,024	0,017
-615,546	800,000	0,031	0,084
-614,532	-49,333	-0,101	-0,035
-613,517	-41,643	-0,053	0,020
-612,503	-200,000	-0,008	-0,076
-611,488	-200,000	0,018	-0,098
-610,474	800,000	-0,017	0,040
-609,459	114,226	-0,150	-0,136
-608,444	-84,057	0,073	0,017
-607,430	-45,790	-0,060	0,022
-606,415	800,000	-0,077	-0,195
-605,401	-90,127	0,149	-0,032
-604,386	79,395	0,098	0,078
-603,371	-176,374	-0,106	-0,002
-602,357	-81,053	0,025	0,006
-601,342	-129,127	-0,042	0,004
-600,328	645,096	-0,043	-0,081
-599,313	-200,000	-0,002	-0,051
-598,298	-41,643	0,237	0,090
-597,284	43,451	-0,085	-0,057
-596,269	136,325	-0,034	-0,033
-595,255	92,219	-0,133	-0,111
-594,240	-200,000	-0,008	0,122
-593,225	800,000	-0,044	-0,101
-592,211	800,000	-0,025	-0,061
-591,196	800,000	0,037	-0,089
-590,182	-135,006	0,097	-0,009
-589,167	87,919	0,046	0,038
-588,152	-200,000	-0,023	-0,146
-587,138	64,599	-0,093	0,069
-586,123	20,165	0,051	0,030
-585,109	145,082	0,050	-0,050
-584,094	-40,324	0,070	-0,027
-583,079	666,427	-0,041	-0,078
-582,065	-200,000	0,020	-0,076
-581,050	-200,000	0,002	0,012
-580,036	303,043	0,060	-0,082
-579,021	-200,000	-0,019	0,122
-578,006	-200,000	-0,032	-0,107
-576,992	-200,000	0,028	-0,119
-575,977	-79,651	-0,076	0,019
-574,963	577,194	-0,027	0,049
-573,948	-42,142	0,216	-0,081
-572,934	361,856	-0,049	-0,073
-571,919	130,342	0,044	-0,042
-570,904	-94,749	-0,084	-0,017
-569,890	82,753	-0,070	0,056
-568,875	800,000	-0,004	-0,012
-567,861	800,000	-0,037	0,086
-566,846	58,856	0,085	-0,062
-565,831	800,000	-0,028	-0,065
-564,817	800,000	-0,009	-0,020
-563,802	800,000	0,032	-0,067
-562,788	-200,000	-0,012	-0,067
-561,773	800,000	0,022	-0,065
-560,758	800,000	0,011	-0,032
-559,744	-12,218	-0,074	-0,036
-558,729	33,729	-0,049	-0,031
-557,715	24,059	-0,071	0,043
-556,700	-150,652	-0,236	-0,013
-555,685	638,565	0,036	-0,068
-554,671	-110,813	0,108	0,016
-553,656	105,975	0,119	0,104
-552,642	97,531	0,027	0,023
-551,627	-200,000	0,028	0,207
-550,612	-200,000	-0,004	0,040
-549,598	-20,043	-0,173	0,078
-548,583	572,512	-0,037	-0,067
-547,569	-200,000	0,099	0,000
-546,554	417,201	-0,035	0,055
-545,539	-200,000	0,030	-0,116
-544,525	800,000	0,011	-0,025
-543,510	-200,000	0,005	0,121
-542,496	-200,000	-0,004	-0,043
-541,481	85,160	0,127	0,103
-540,466	-50,795	-0,031	-0,011
-539,452	-200,000	0,001	0,144
-538,437	-49,301	-0,046	0,016
-537,423	178,050	0,081	0,088
-536,408	-26,133	0,156	0,067
-535,393	81,731	0,063	-0,050
-534,379	800,000	-0,039	0,081
-533,364	207,526	-0,029	-0,033
-532,350	92,147	0,057	-0,048
-531,335	12,235	0,065	0,037
-530,321	800,000	0,013	0,039
-529,306	56,212	-0,090	-0,064
-528,291	-200,000	0,007	0,119
-527,277	107,144	0,031	-0,027
-526,262	-13,148	-0,045	0,022
-525,248	41,844	0,089	0,059
-524,233	-38,807	-0,088	-0,034
-523,218	188,989	-0,057	0,064
-522,204	-104,574	-0,143	0,024
-521,189	716,247	-0,038	-0,075
-520,175	-200,000	-0,009	-0,033
-519,160	37,684	-0,100	-0,065
-518,145	-174,626	-0,150	-0,003
-517,131	-33,105	-0,016	0,006
-516,116	-200,000	0,002	0,170
-515,102	-200,000	-0,048	0,161
-514,087	494,680	0,038	0,065
-513,072	2,294	-0,069	0,037
-512,058	201,733	0,118	-0,134
-511,043	800,000	0,013	-0,042
-510,029	-200,000	0,002	0,008
-509,014	6,900	0,055	-0,030
-507,999	-200,000	0,000	0,052
-506,985	-7,822	0,039	0,019
-505,970	576,838	0,039	0,070
-504,956	-105,002	-0,023	0,004
-503,941	-60,359	-0,120	-0,038
-502,926	-43,117	0,094	0,035
-501,912	194,323	0,088	0,098
-500,897	-200,000	-0,036	-0,128
-499,883	-138,106	-0,075	0,006
-498,868	-118,488	0,037	-0,005
-497,853	412,469	0,043	-0,068
-496,839	136,658	0,045	0,043
-495,824	800,000	-0,026	0,053
-494,810	-47,747	0,059	0,021
-493,795	-200,000	-0,011	-0,052
-492,781	-110,073	-0,060	-0,009
-491,766	-140,974	0,077	-0,006
-490,751	409,289	-0,087	0,137
-489,737	800,000	-0,068	0,151
-488,722	-40,471	0,085	-0,032
-487,708	-200,000	0,005	0,023
-486,693	-11,949	0,061	-0,029
-485,678	306,669	0,064	-0,088
-484,664	261,094	-0,065	-0,083
-483,649	-65,053	-0,083	-0,025
-482,635	-200,000	0,003	-0,060
-481,620	800,000	0,050	0,104
-480,605	800,000	0,050	0,111
-479,591	-30,085	-0,092	-0,038
-478,576	-124,420	-0,099	-0,011
-477,562	-129,547	-0,152	-0,015
-476,547	-200,000	-0,030	-0,116
-475,532	25,994	0,087	-0,053
-474,518	550,235	0,058	0,104
-473,503	91,729	0,091	0,076
-472,489	197,374	0,138	0,156
-471,474	-67,235	0,126	-0,036
-470,459	800,000	-0,060	-0,167
-469,445	-161,123	-0,144	-0,005
-468,430	78,634	-0,131	-0,103
-467,416	-200,000	0,007	-0,028
-466,401	-104,296	0,052	-0,009
-465,386	34,943	-0,092	0,059
-464,372	-200,000	0,009	0,074
-463,357	124,537	-0,104	-0,096
-462,343	39,815	-0,105	0,069
-461,328	92,033	0,058	0,048
-460,313	-32,547	0,037	-0,015
-459,299	128,097	-0,050	0,046
-458,284	320,313	0,041	0,058
-457,270	-56,824	-0,101	0,033
-456,255	165,899	0,086	-0,090
-455,241	-81,220	-0,053	-0,013
-454,226	-148,470	0,092	-0,005
-453,211	286,152	0,059	0,079
-452,197	-200,000	-0,001	0,205
-451,182	58,578	0,082	-0,059
-450,168	757,615	0,045	-0,089
-449,153	-200,000	-0,020	0,153
-448,138	-118,823	-0,103	-0,013
-447,124	127,990	-0,007	-0,007
-446,109	-27,574	-0,054	0,023
-445,095	283,391	0,061	-0,081
-444,080	122,944	0,026	0,024
-443,065	-200,000	-0,010	-0,051
-442,051	-136,716	-0,020	-0,002
-441,036	81,543	-0,098	-0,078
-440,022	-200,000	-0,002	-0,044
-439,007	-200,000	0,044	0,255
-437,992	228,405	0,033	0,039
-436,978	-132,145	-0,035	-0,003
-435,963	574,712	-0,037	-0,067
-434,949	227,570	-0,029	-0,035
-433,934	695,188	-0,064	-0,125
-432,919	297,443	0,040	0,054
-431,905	-18,767	-0,124	-0,057
-430,890	75,453	0,026	-0,021
-429,876	483,502	0,029	0,049
-428,861	29,927	-0,106	0,066
-427,846	-200,000	-0,001	-0,047
-426,832	134,443	0,072	0,069
-425,817	-200,000	-0,014	0,046
-424,803	108,781	0,083	0,073
-423,788	-0,555	-0,101	-0,053
-422,773	102,742	0,100	-0,086
-421,759	0,088	0,030	-0,016
-420,744	800,000	0,057	-0,138
-419,730	-64,512	-0,197	-0,059
-418,715	-90,102	-0,115	-0,024
-417,701	265,472	0,067	0,086
-416,686	193,374	0,127	-0,142
-415,671	-18,507	-0,062	-0,029
-414,657	-146,001	0,158	-0,010
-413,642	-200,000	-0,004	0,058
-412,628	-121,331	-0,071	-0,009
-411,613	577,682	0,062	-0,111
-410,598	-200,000	-0,003	-0,009
-409,584	-200,000	0,006	0,038
-408,569	351,212	0,081	0,119
-407,555	800,000	0,038	-0,112
-406,540	-200,000	0,020	0,080
-405,525	50,749	-0,115	-0,080
-404,511	93,391	0,058	-0,048
-403,496	69,901	-0,044	-0,033
-402,482	139,846	0,060	-0,059
-401,467	-31,390	0,056	0,023
-400,452	205,579	0,068	0,078
-399,438	800,000	0,039	0,080
-398,423	40,730	0,095	-0,063
-397,409	-200,000	0,004	-0,111
-396,394	147,092	-0,090	-0,089
-395,379	0,765	0,058	-0,031
-394,365	-1,390	0,092	-0,048
-393,350	800,000	0,031	0,068
-392,336	-134,448	-0,116	-0,010
-391,321	-200,000	-0,013	0,046
-390,306	-67,744	0,098	0,028
-389,292	550,505	-0,033	-0,058
-388,277	-200,000	0,005	0,043
-387,263	101,940	0,121	-0,104
-386,248	142,870	0,083	0,081
-385,233	-25,414	0,062	0,027
-384,219	-29,216	-0,074	0,031
-383,204	-154,368	-0,108	0,005
-382,190	800,000	0,011	-0,023
-381,175	528,079	0,053	0,093
-380,160	-19,037	0,098	-0,045
-379,146	-128,478	-0,156	0,016
-378,131	-200,000	0,013	0,170
-377,117	800,000	-0,055	0,148
-376,102	723,817	-0,006	-0,012
-375,088	232,551	0,080	0,097
-374,073	-25,903	-0,090	-0,039
-373,058	34,431	0,009	0,006
-372,044	800,000	0,024	0,055
-371,029	-51,273	-0,139	0,047
-370,015	800,000	0,053	-0,149
-369,000	-85,881	0,116	0,026
-367,985	800,000	-0,034	-0,109
-366,971	-200,000	0,017	0,112
-365,956	-140,884	0,066	0,005
-364,942	624,447	0,060	0,112
-363,927	482,665	-0,046	0,078
-362,912	-200,000	0,005	0,053
-361,898	-27,513	-0,048	0,020
-360,883	-200,000	0,023	0,087
-359,869	-98,275	-0,095	-0,018
-358,854	65,771	-0,028	-0,021
-357,839	757,420	0,007	0,015
-356,825	800,000	-0,019	-0,052
-355,810	800,000	-0,062	-0,149
-354,796	89,927	-0,057	0,047
-353,781	786,432	0,004	-0,009
-352,766	-200,000	-0,008	-0,067
-351,752	-200,000	0,020	0,136
-350,737	-52,968	0,033	0,011
-349,723	139,635	0,009	0,009
-348,708	-200,000	-0,020	0,144
-347,693	-200,000	0,020	0,094
-346,679	-93,097	-0,136	-0,028
-345,664	64,548	-0,070	-0,052
-344,650	312,858	-0,031	-0,043
-343,635	-22,811	0,057	0,025
-342,620	-200,000	-0,022	0,117
-341,606	551,813	0,023	-0,042
-340,591	68,635	0,043	0,033
-339,577	-82,394	-0,044	-0,010
-338,562	171,570	-0,066	0,070
-337,548	800,000	-0,010	-0,025
-336,533	223,047	0,038	-0,045
-335,518	800,000	0,018	0,049
-334,504	207,306	0,119	-0,136
-333,489	310,176	0,065	-0,089
-332,475	-200,000	0,022	-0,247
-331,460	51,509	-0,050	-0,035
-330,445	-62,705	-0,094	0,028
-329,431	800,000	-0,011	-0,030
-328,416	-158,025	0,024	0,001
-327,402	218,275	-0,014	0,016
-326,387	-128,975	-0,111	-0,011
-325,372	-73,137	-0,052	-0,014
-324,358	-200,000	-0,006	-0,060
-323,343	-200,000	0,014	0,143
-322,329	66,132	0,031	-0,023
-321,314	-94,624	0,075	0,015
-320,299	-19,642	-0,186	0,084
-319,285	-75,220	-0,060	0,015
-318,270	349,551	-0,084	-0,122
-317,256	-200,000	0,000	-0,060
-316,241	-200,000	0,042	0,198
-315,226	94,516	-0,034	0,028
-314,212	-151,057	0,043	-0,002
-313,197	229,111	0,052	-0,062
-312,183	194,816	0,033	0,037
-311,168	-15,856	0,093	-0,043
-310,153	292,207	0,073	-0,098
-309,139	-106,975	0,160	0,026
-308,124	-200,000	0,037	-0,192
-307,110	-200,000	-0,006	0,163
-306,095	-56,758	0,009	-0,003
-305,080	-26,241	-0,075	0,032
-304,066	-109,925	-0,155	-0,023
-303,051	800,000	-0,033	0,074
-302,037	-77,975	-0,148	0,037
-301,022	420,794	-0,020	-0,031
-300,008	129,086	0,130	0,121
-298,993	23,917	-0,039	0,024
-297,978	800,000	-0,047	0,097
-296,964	-200,000	0,007	-0,088
-295,949	165,617	0,088	0,092
-294,935	-200,000	0,011	-0,139
-293,920	15,973	0,034	0,020
-292,905	-74,314	0,127	-0,033
-291,891	-10,049	-0,163	0,079
-290,876	-47,140	-0,076	0,027
-289,862	44,357	-0,043	-0,029
-288,847	-185,949	-0,046	0,000
-287,832	555,424	-0,013	-0,023
-286,818	300,521	0,010	0,014
-285,803	-200,000	-0,007	0,025
-284,789	-200,000	-0,018	0,116
-283,774	293,739	0,040	0,054
-282,759	-23,160	-0,028	0,012
-281,745	382,075	-0,071	0,107
-280,730	52,037	0,033	0,023
-279,716	800,000	0,008	0,020
-278,701	157,458	-0,044	-0,045
-277,686	-122,273	0,146	-0,017
-276,672	69,247	0,022	0,017
-275,657	498,792	-0,051	-0,087
-274,643	152,483	0,057	-0,057
-273,628	135,524	-0,056	-0,053
-272,613	115,394	0,070	-0,063
-271,599	720,318	0,077	0,151
-270,584	122,659	-0,098	0,089
-269,570	-140,863	-0,088	-0,007
-268,555	185,347	0,062	-0,067
-267,540	239,910	-0,083	0,101
-266,526	-152,185	-0,074	-0,004
-265,511	-157,140	0,068	0,003
-264,497	-141,633	-0,030	0,002
-263,482	800,000	0,035	0,076
-262,467	655,592	-0,077	0,145
-261,453	800,000	0,042	-0,125
-260,438	240,021	-0,024	0,030
-259,424	141,927	0,108	-0,105
-258,409	150,272	-0,056	0,056
-257,395	544,829	-0,016	0,028
-256,380	-14,094	0,113	-0,053
-255,365	285,679	0,061	-0,081
-254,351	-200,000	-0,024	0,202
-253,336	-200,000	0,005	0,058
-252,322	35,109	-0,080	0,051
-251,307	538,574	-0,050	-0,088
-250,292	54,943	0,099	-0,070
-249,278	-200,000	-0,028	-0,110
-248,263	192,324	0,053	0,058
-247,249	-140,228	0,122	0,009
-246,234	-200,000	-0,016	-0,085
-245,219	800,000	0,082	-0,170
-244,205	800,000	0,039	-0,118
-243,190	39,579	0,133	-0,087
-242,176	171,036	0,079	0,083
-241,161	-96,488	0,041	-0,008
-240,146	-146,557	-0,089	-0,006
-239,132	171,538	-0,070	0,073
-238,117	2,585	0,028	0,015
-237,103	271,042	-0,028	-0,036
-236,088	-200,000	0,008	0,073
-235,073	-200,000	-0,001	0,054
-234,059	469,214	-0,066	0,109
-233,044	293,528	-0,096	-0,128
-232,030	95,514	0,041	-0,034
-231,015	-101,461	0,049	0,009
-230,000	800,000	0,058	-0,179
-228,986	-200,000	-0,009	-0,070
-227,971	667,312	-0,053	0,100
-226,957	33,894	0,229	0,146
-225,942	-200,000	-0,019	0,110
-224,927	602,193	-0,025	-0,045
-223,913	273,281	0,093	-0,120
-222,898	-42,367	-0,098	-0,036
-221,884	800,000	-0,057	0,173
-220,869	192,074	0,122	0,134
-219,855	307,250	-0,066	0,090
-218,840	-99,317	-0,138	0,025
-217,825	-104,101	-0,098	0,016
-216,811	-200,000	-0,005	0,042
-215,796	71,808	-0,115	-0,087
-214,782	-200,000	0,013	0,071
-213,767	136,538	0,016	-0,015
-212,752	29,986	-0,038	0,024
-211,738	-200,000	0,030	0,105
-210,723	-127,387	0,058	-0,006
-209,709	-68,924	-0,016	0,005
-208,694	192,351	-0,024	0,026
-207,679	-200,000	-0,018	-0,105
-206,665	-6,335	0,078	-0,039
-205,650	800,000	0,025	0,066
-204,636	-75,261	0,223	0,058
-203,621	800,000	0,025	-0,069
-202,606	-200,000	-0,008	-0,046
-201,592	-24,038	-0,013	0,006
-200,577	-128,202	-0,165	-0,017
-199,563	549,860	0,048	-0,085
-198,548	631,212	0,013	-0,023
-197,533	168,448	0,033	-0,034
-196,519	240,773	0,027	0,033
-195,504	22,441	0,035	0,021
-194,490	-200,000	0,009	-0,084
-193,475	-200,000	-0,007	0,066
-192,460	194,473	-0,025	-0,027
-191,446	-200,000	0,026	0,098
-190,431	65,806	0,078	0,058
-189,417	420,676	0,049	-0,076
-188,402	47,425	-0,102	0,069
-187,387	-79,921	-0,066	-0,016
-186,373	475,992	-0,032	-0,053
-185,358	-200,000	0,005	-0,058
-184,344	23,688	-0,037	0,022
-183,329	136,210	0,037	-0,035
-182,315	-80,368	-0,105	-0,025
-181,300	99,208	0,069	0,058
-180,285	-83,237	0,170	-0,039
-179,271	-200,000	0,036	-0,168
-178,256	-200,000	0,040	-0,151
-177,242	-200,000	0,001	-0,091
-176,227	-200,000	-0,003	0,036
-175,212	83,423	0,038	-0,030
-174,198	-118,036	-0,046	0,006
-173,183	-61,231	0,094	0,029
-172,169	116,248	-0,077	-0,069
-171,154	-74,234	0,150	0,039
-170,139	34,078	0,197	0,125
-169,125	-28,199	0,064	0,027
-168,110	-94,925	0,135	0,026
-167,096	-182,276	0,070	-0,001
-166,081	800,000	-0,048	-0,146
-165,066	-200,000	-0,081	0,000
-164,052	-200,000	0,020	-0,095
-163,037	432,764	-0,025	0,040
-162,023	-103,151	0,096	0,016
-161,008	-79,126	0,031	-0,008
-159,993	-200,000	-0,002	-0,086
-158,979	1,207	0,064	-0,034
-157,964	-200,000	-0,009	-0,038
-156,950	-200,000	0,019	0,124
-155,935	23,099	-0,202	0,121
-154,920	-163,492	0,049	-0,002
-153,906	-44,822	-0,111	-0,040
-152,891	-200,000	-0,003	-0,099
-151,877	409,254	0,097	-0,151
-150,862	-200,000	-0,024	-0,168
-149,847	251,842	0,088	-0,109
-148,833	-4,186	-0,085	-0,043
-147,818	-35,170	0,062	-0,024
-146,804	-200,000	0,026	-0,084
-145,789	-200,000	-0,009	0,120
-144,775	83,318	-0,069	-0,055
-143,760	122,040	0,077	-0,070
-142,745	128,702	-0,068	0,064
-141,731	15,871	-0,100	0,057
-140,716	79,405	0,089	0,070
-139,702	203,759	0,082	-0,092
-138,687	-54,793	0,032	-0,010
-137,672	-200,000	-0,000	-0,077
-136,658	-200,000	0,009	-0,045
-135,643	-46,412	0,118	-0,042
-134,629	800,000	0,044	0,092
-133,614	63,760	0,005	0,003
-132,599	-200,000	-0,006	-0,051
-131,585	603,810	-0,033	0,060
-130,570	-200,000	-0,028	0,103
-129,556	-200,000	-0,033	-0,162
-128,541	-189,158	-0,070	0,001
-127,526	-200,000	0,025	-0,085
-126,512	-200,000	-0,023	-0,074
-125,497	57,662	-0,111	0,079
-124,483	186,595	0,066	0,072
-123,468	-200,000	-0,002	0,040
-122,453	48,437	0,072	0,049
-121,439	20,393	-0,042	-0,025
-120,424	234,111	-0,032	-0,038
-119,410	107,585	0,042	0,036
