DTS Sentinel unit serial number:	SN410029Multiplexer serial number:	ORYXHardware model number:	OX2-SRSoftware version number:	ORYX F/W v4,00 Oryx Data Collector v3.7.2.0data status	okinstallation	B6 Nyhavnadifferential loss correction	single-endedforward channel	channel 2reverse channel	N/Adate	2023/12/09time	14:30:08forward acquisition time	300,00reverse acquisition time	0,00gamma	499,1914k internal	0,3133k external	0,3133temperature offset calibration	1,0000default loss term (dB/km)	0,3820temperature slope calibration	1,0000multiplexer offset coefficient	1,0000multiplexer slope coefficient	1,0000fibre end	0,00T internal ref (°C)	20,53T ext. ref 1 (°C)	4,30T ext. ref 2 (°C)	4,32length (m)	temperature (°C)	Stokes	anti-Stokes-744,400	-39,894	0,084	-0,032
-743,385	100,520	-0,280	0,242
-742,371	18,465	0,038	-0,023
-741,356	-43,223	-0,161	0,060
-740,342	30,319	0,056	-0,036
-739,327	-97,015	-0,305	0,059
-738,312	-71,657	-0,136	0,037
-737,298	-16,890	-0,167	0,078
-736,283	-10,322	0,123	0,061
-735,269	-18,091	-0,169	0,078
-734,254	-165,902	0,082	0,003
-733,239	-97,923	-0,469	-0,089
-732,225	13,847	0,146	-0,084
-731,210	-139,930	0,054	0,004
-730,196	-200,000	0,021	-0,146
-729,181	-200,000	0,008	-0,127
-728,167	505,103	0,066	-0,114
-727,152	-20,347	0,029	0,013
-726,137	71,404	-0,100	-0,077
-725,123	243,191	0,066	-0,082
-724,108	197,183	-0,035	-0,040
-723,094	-200,000	-0,017	-0,080
-722,079	-100,506	0,042	-0,008
-721,064	-30,062	0,006	-0,003
-720,050	-65,810	-0,113	-0,033
-719,035	-200,000	0,009	-0,029
-718,021	-91,270	0,038	-0,008
-717,006	121,687	-0,081	0,075
-715,991	-47,694	-0,152	-0,054
-714,977	-5,889	-0,140	-0,071
-713,962	149,028	0,101	-0,101
-712,948	-14,018	0,059	-0,028
-711,933	-200,000	0,003	0,084
-710,918	-130,462	-0,114	0,011
-709,904	43,432	-0,109	-0,074
-708,889	-121,953	0,109	-0,013
-707,875	80,350	-0,032	-0,026
-706,860	-87,181	-0,071	-0,016
-705,845	323,152	0,043	0,061
-704,831	96,731	-0,048	0,041
-703,816	800,000	-0,012	0,025
-702,802	-200,000	-0,029	0,110
-701,787	-200,000	0,004	0,088
-700,772	800,000	0,024	0,056
-699,758	301,124	-0,016	0,022
-698,743	-200,000	0,011	0,078
-697,729	-200,000	0,006	0,171
-696,714	59,684	-0,086	0,063
-695,699	800,000	-0,020	-0,053
-694,685	364,361	-0,052	0,077
-693,670	-132,511	-0,035	0,003
-692,656	-106,651	-0,187	-0,030
-691,641	-151,447	-0,043	-0,002
-690,627	-69,914	0,071	0,020
-689,612	-20,539	-0,122	-0,055
-688,597	800,000	0,017	-0,053
-687,583	27,507	-0,124	-0,077
-686,568	800,000	-0,022	-0,058
-685,554	367,135	0,014	-0,021
-684,539	-63,856	-0,072	-0,022
-683,524	82,602	-0,118	0,095
-682,510	81,624	-0,079	0,064
-681,495	30,309	0,056	0,035
-680,481	587,529	-0,060	0,110
-679,466	-151,089	-0,094	0,005
-678,451	-60,736	-0,094	-0,029
-677,437	67,732	0,108	0,081
-676,422	68,958	-0,074	0,057
-675,408	-200,000	0,001	-0,008
-674,393	124,123	-0,108	0,101
-673,378	59,074	0,063	-0,046
-672,364	-107,065	-0,187	-0,030
-671,349	-102,158	-0,166	-0,029
-670,335	-69,857	0,120	-0,034
-669,320	800,000	0,040	-0,116
-668,305	-66,796	0,149	-0,043
-667,291	-200,000	-0,008	-0,115
-666,276	330,355	0,080	-0,115
-665,262	-106,395	-0,168	-0,027
-664,247	-180,093	0,066	-0,001
-663,232	399,623	0,050	0,078
-662,218	800,000	0,069	0,178
-661,203	800,000	0,029	0,080
-660,189	-200,000	0,040	0,154
-659,174	-200,000	-0,013	-0,138
-658,159	-148,530	-0,108	0,006
-657,145	-21,989	-0,048	0,022
-656,130	-2,287	-0,076	-0,039
-655,116	73,168	-0,056	0,044
-654,101	-200,000	-0,033	0,139
-653,086	59,597	-0,092	-0,067
-652,072	743,094	-0,050	-0,099
-651,057	-115,136	-0,181	-0,025
-650,043	43,673	-0,115	-0,078
-649,028	292,244	-0,007	-0,009
-648,014	-200,000	0,006	0,031
-646,999	-122,562	-0,083	0,010
-645,984	800,000	0,014	0,046
-644,970	455,530	-0,012	-0,019
-643,955	-200,000	-0,013	-0,064
-642,941	29,294	-0,030	0,019
-641,926	-200,000	0,018	-0,154
-640,911	-28,320	0,057	-0,024
-639,897	46,931	-0,048	0,033
-638,882	435,859	-0,019	-0,030
-637,868	-200,000	0,014	0,130
-636,853	371,894	-0,030	0,045
-635,838	-27,123	0,096	0,041
-634,824	46,246	-0,053	0,036
-633,809	65,163	-0,155	-0,116
-632,795	-116,703	0,101	0,014
-631,780	-200,000	-0,004	-0,064
-630,765	82,371	-0,039	0,031
-629,751	-9,694	0,053	-0,026
-628,736	-200,000	0,019	-0,065
-627,722	800,000	-0,040	-0,109
-626,707	-200,000	0,010	-0,037
-625,692	299,192	0,030	0,041
-624,678	800,000	0,019	-0,044
-623,663	74,948	-0,077	0,060
-622,649	800,000	0,005	-0,011
-621,634	-200,000	0,003	-0,027
-620,619	800,000	0,064	-0,183
-619,605	-67,644	0,055	0,016
-618,590	800,000	-0,054	0,118
-617,576	197,013	0,046	0,052
-616,561	-200,000	-0,001	-0,050
-615,546	122,641	0,126	-0,117
-614,532	117,510	0,028	-0,026
-613,517	-200,000	-0,035	-0,124
-612,503	11,297	0,019	0,011
-611,488	-115,585	0,032	-0,004
-610,474	800,000	0,022	0,059
-609,459	80,325	-0,030	-0,024
-608,444	-131,680	0,114	-0,011
-607,430	742,474	-0,042	0,083
-606,415	-200,000	0,009	-0,081
-605,401	-7,615	-0,052	-0,026
-604,386	-200,000	-0,010	0,058
-603,371	688,097	0,039	-0,077
-602,357	282,438	-0,100	-0,133
-601,342	418,448	-0,025	0,040
-600,328	300,518	-0,070	-0,096
-599,313	800,000	0,050	-0,144
-598,298	800,000	0,031	-0,068
-597,284	129,769	-0,029	0,028
-596,269	323,879	-0,106	0,150
-595,255	29,031	-0,047	0,029
-594,240	2,604	0,047	-0,025
-593,225	-65,522	-0,166	-0,049
-592,211	800,000	-0,019	0,054
-591,196	442,177	-0,060	0,097
-590,182	112,067	0,054	-0,048
-589,167	203,520	-0,078	0,089
-588,152	-103,693	0,171	0,029
-587,138	-200,000	-0,011	-0,149
-586,123	-200,000	-0,013	0,062
-585,109	-200,000	-0,010	-0,064
-584,094	-200,000	-0,010	-0,049
-583,079	800,000	0,065	-0,156
-582,065	84,774	-0,042	0,034
-581,050	-200,000	0,002	-0,010
-580,036	-178,283	-0,062	0,001
-579,021	-200,000	0,009	-0,048
-578,006	-82,051	-0,071	-0,017
-576,992	266,105	-0,081	-0,105
-575,977	-200,000	0,048	-0,238
-574,963	66,935	0,126	0,095
-573,948	-176,060	0,043	0,001
-572,934	201,882	0,028	-0,032
-571,919	-200,000	-0,004	-0,116
-570,904	-45,754	-0,019	0,007
-569,890	800,000	0,018	0,048
-568,875	634,660	-0,054	-0,101
-567,861	102,143	-0,121	-0,105
-566,846	-123,869	0,021	0,002
-565,831	-200,000	0,000	0,066
-564,817	-93,445	-0,169	-0,034
-563,802	-200,000	-0,035	-0,141
-562,788	42,344	0,119	0,080
-561,773	188,690	0,093	0,103
-560,758	800,000	-0,019	-0,039
-559,744	-200,000	0,008	-0,029
-558,729	517,643	-0,017	-0,029
-557,715	-200,000	0,022	0,105
-556,700	800,000	-0,049	0,126
-555,685	-83,387	0,026	-0,006
-554,671	-200,000	-0,049	-0,181
-553,656	139,170	0,065	-0,063
-552,642	800,000	-0,087	0,216
-551,627	407,686	-0,057	0,089
-550,612	-99,719	0,046	0,008
-549,598	-200,000	-0,004	-0,020
-548,583	-200,000	-0,020	-0,113
-547,569	-151,234	0,125	0,007
-546,554	307,021	0,054	0,074
-545,539	-200,000	0,001	0,188
-544,525	-9,078	0,018	-0,009
-543,510	-5,082	-0,024	0,012
-542,496	210,795	-0,102	0,118
-541,481	110,378	-0,029	0,026
-540,466	800,000	-0,041	-0,105
-539,452	-193,826	0,060	-0,000
-538,437	358,225	0,019	-0,029
-537,423	800,000	0,019	-0,054
-536,408	184,161	0,062	-0,068
-535,393	314,424	-0,022	0,031
-534,379	-200,000	-0,006	0,022
-533,364	-164,565	0,055	0,002
-532,350	7,965	0,096	-0,053
-531,335	164,709	-0,071	-0,073
-530,321	800,000	0,078	0,163
-529,306	-132,448	-0,045	0,004
-528,291	174,929	0,065	-0,070
-527,277	133,478	0,110	-0,105
-526,262	800,000	-0,021	-0,048
-525,248	-200,000	-0,007	0,082
-524,233	751,165	0,113	0,226
-523,218	-117,991	0,041	0,005
-522,204	-200,000	-0,004	0,051
-521,189	-200,000	0,003	-0,033
-520,175	-200,000	0,037	-0,182
-519,160	147,871	-0,105	0,104
-518,145	-38,247	0,014	0,005
-517,131	108,694	0,092	0,081
-516,116	-18,723	0,133	0,061
-515,102	-70,571	-0,028	-0,008
-514,087	8,088	0,018	0,010
-513,072	800,000	-0,028	0,083
-512,058	800,000	-0,047	-0,098
-511,043	-106,948	0,121	0,020
-510,029	628,154	-0,021	0,039
-509,014	-200,000	0,011	0,102
-507,999	173,175	0,103	0,109
-506,985	-162,427	-0,278	-0,010
-505,970	800,000	-0,006	0,018
-504,956	-116,040	0,035	-0,005
-503,941	-200,000	0,003	0,069
-502,926	700,449	-0,045	-0,088
-501,912	181,944	0,085	0,093
-500,897	-200,000	-0,008	-0,098
-499,883	800,000	-0,001	-0,004
-498,868	123,321	0,053	-0,049
-497,853	39,305	-0,064	0,042
-496,839	800,000	-0,050	-0,153
-495,824	197,379	0,047	-0,053
-494,810	-59,071	0,093	0,029
-493,795	-171,733	-0,072	0,002
-492,781	-200,000	0,042	0,229
-491,766	800,000	-0,033	-0,085
-490,751	800,000	-0,055	-0,123
-489,737	-200,000	0,019	-0,075
-488,722	-23,218	0,061	-0,027
-487,708	201,962	-0,059	0,067
-486,693	800,000	-0,031	-0,090
-485,678	800,000	-0,014	0,038
-484,664	50,921	-0,036	0,025
-483,649	-200,000	-0,009	-0,038
-482,635	383,075	0,065	-0,099
-481,620	-200,000	0,023	-0,087
-480,605	-200,000	0,018	0,073
-479,591	62,287	-0,035	-0,025
-478,576	716,248	-0,053	-0,104
-477,562	800,000	-0,074	0,170
-476,547	800,000	-0,016	-0,037
-475,532	107,014	-0,082	0,071
-474,518	800,000	-0,041	0,099
-473,503	26,536	0,145	0,089
-472,489	321,094	-0,037	0,052
-471,474	342,113	0,090	0,130
-470,459	-18,131	-0,081	-0,037
-469,445	422,414	0,038	-0,060
-468,430	401,451	0,065	-0,100
-467,416	-200,000	0,011	0,039
-466,401	121,981	-0,028	-0,026
-465,386	-70,814	-0,071	-0,020
-464,372	194,408	-0,056	0,062
-463,357	408,113	-0,046	0,072
-462,343	139,784	0,061	-0,059
-461,328	-58,290	0,070	0,022
-460,313	-200,000	0,061	0,000
-459,299	-200,000	0,006	-0,048
-458,284	-200,000	0,025	0,135
-457,270	37,888	-0,117	-0,076
-456,255	196,713	-0,016	0,018
-455,241	-119,468	-0,067	0,008
-454,226	127,749	0,044	-0,041
-453,211	183,767	0,031	-0,033
-452,197	-200,000	0,003	-0,017
-451,182	-144,684	-0,012	-0,001
-450,168	127,664	-0,054	-0,051
-449,153	800,000	-0,043	0,092
-448,138	-200,000	-0,006	0,034
-447,124	749,562	0,028	-0,057
-446,109	123,838	-0,043	0,040
-445,095	-147,217	-0,119	0,007
-444,080	-8,508	-0,021	-0,010
-443,065	183,727	0,023	-0,025
-442,051	5,183	-0,097	-0,052
-441,036	502,520	-0,068	-0,117
-440,022	55,385	-0,037	0,026
-439,007	-117,669	0,084	-0,011
-437,992	145,172	-0,022	-0,022
-436,978	-39,020	0,117	0,045
-435,963	800,000	0,023	0,051
-434,949	-185,057	0,263	-0,003
-433,934	-77,854	-0,131	-0,033
-432,919	154,810	0,083	0,084
-431,905	-31,641	-0,042	-0,017
-430,890	-104,700	0,010	-0,002
-429,876	731,530	0,029	0,057
-428,861	-10,592	0,054	-0,026
-427,846	-24,911	0,059	-0,026
-426,832	57,315	-0,071	-0,051
-425,817	-97,059	-0,120	-0,023
-424,803	-200,000	-0,014	-0,070
-423,788	-200,000	0,020	-0,074
-422,773	-200,000	0,000	-0,035
-421,759	-53,047	-0,038	-0,013
-420,744	-98,399	0,058	-0,011
-419,730	-200,000	-0,028	-0,091
-418,715	800,000	-0,013	-0,033
-417,701	83,533	-0,078	0,062
-416,686	-77,744	0,099	0,025
-415,671	-39,332	0,151	-0,058
-414,657	-86,821	-0,151	-0,034
-413,642	442,112	0,085	-0,137
-412,628	222,837	-0,019	-0,022
-411,613	-85,727	-0,141	-0,032
-410,598	25,464	-0,083	-0,050
-409,584	605,245	-0,061	0,112
-408,569	-13,259	0,118	0,056
-407,555	-62,914	-0,121	0,037
-406,540	80,652	0,137	0,108
-405,525	352,038	0,049	0,071
-404,511	274,285	-0,049	-0,064
-403,496	195,590	0,075	-0,083
-402,482	192,127	-0,026	0,029
-401,467	-152,151	-0,042	-0,002
-400,452	800,000	0,023	0,052
-399,438	800,000	0,077	0,218
-398,423	47,573	0,016	-0,011
-397,409	-20,085	-0,135	-0,061
-396,394	-200,000	-0,012	-0,073
-395,379	-96,540	-0,042	-0,008
-394,365	11,225	-0,116	-0,065
-393,350	115,000	-0,078	0,070
-392,336	-200,000	0,034	0,312
-391,321	800,000	0,052	0,122
-390,306	-81,485	0,119	0,029
-389,292	-200,000	-0,009	0,073
-388,277	-171,632	0,097	-0,002
-387,263	-200,000	0,029	-0,095
-386,248	-200,000	0,038	0,139
-385,233	-48,160	-0,100	0,035
-384,219	-121,587	0,019	0,002
-383,204	-34,450	-0,055	-0,022
-382,190	86,627	-0,090	0,073
-381,175	-159,280	-0,030	-0,001
-380,160	-200,000	-0,010	0,044
-379,146	-200,000	0,013	0,047
-378,131	-200,000	0,014	0,051
-377,117	119,861	-0,070	0,063
-376,102	365,300	-0,030	-0,044
-375,088	-200,000	0,015	-0,193
-374,073	203,700	0,118	-0,134
-373,058	-200,000	0,005	-0,025
-372,044	-83,134	0,092	0,022
-371,029	26,349	0,080	-0,049
-370,015	-69,660	-0,047	0,013
-369,000	800,000	-0,034	-0,082
-367,985	72,130	-0,062	-0,047
-366,971	79,996	-0,097	-0,076
-365,956	-28,378	-0,084	-0,035
-364,942	146,696	0,024	0,024
-363,927	800,000	0,027	0,076
-362,912	-200,000	-0,005	0,108
-361,898	169,950	-0,074	-0,078
-360,883	-49,514	-0,083	0,029
-359,869	-117,247	-0,018	-0,002
-358,854	-120,750	0,054	-0,007
-357,839	-11,688	0,182	0,087
-356,825	11,011	-0,155	0,086
-355,810	15,018	0,058	-0,033
-354,796	800,000	-0,060	-0,125
-353,781	535,198	0,017	-0,029
-352,766	800,000	0,020	0,053
-351,752	172,328	0,101	0,107
-350,737	38,371	-0,080	0,052
-349,723	70,085	-0,051	-0,038
-348,708	338,657	-0,012	0,018
-347,693	-80,754	-0,060	-0,014
-346,679	-166,848	-0,093	-0,003
-345,664	-200,000	0,013	0,164
-344,650	-200,000	0,051	0,169
-343,635	-55,012	0,033	0,011
-342,620	711,604	0,041	0,079
-341,606	509,126	0,034	0,058
-340,591	174,439	-0,034	-0,036
-339,577	379,623	0,059	-0,088
-338,562	349,258	-0,067	0,097
-337,548	800,000	-0,049	-0,108
-336,533	-200,000	0,021	-0,122
-335,518	800,000	-0,035	-0,089
-334,504	-115,766	0,137	0,019
-333,489	-200,000	0,032	0,172
-332,475	84,053	-0,138	0,110
-331,460	43,935	-0,100	-0,067
-330,445	-103,427	-0,134	-0,023
-329,431	70,187	-0,026	0,020
-328,416	37,530	-0,059	-0,038
-327,402	-69,568	-0,086	0,024
-326,387	-144,846	-0,049	0,003
-325,372	-156,757	-0,101	-0,004
-324,358	-200,000	0,028	0,099
-323,343	-200,000	0,001	0,027
-322,329	619,350	0,078	0,143
-321,314	-200,000	-0,008	0,048
-320,299	182,557	0,123	-0,133
-319,285	800,000	0,023	-0,048
-318,270	-200,000	0,016	-0,070
-317,256	-167,214	-0,096	0,003
-316,241	-200,000	-0,024	-0,079
-315,226	-200,000	-0,003	0,094
-314,212	-200,000	-0,024	0,146
-313,197	-61,551	0,095	0,029
-312,183	70,260	0,137	-0,103
-311,168	-26,279	-0,096	-0,041
-310,153	800,000	0,047	0,119
-309,139	-10,222	-0,112	-0,054
-308,124	-98,092	0,138	-0,026
-307,110	-200,000	-0,022	0,099
-306,095	800,000	0,032	0,071
-305,080	292,235	-0,048	-0,064
-304,066	-200,000	0,015	-0,065
-303,051	2,864	0,106	-0,056
-302,037	-116,686	-0,133	-0,018
-301,022	-27,632	0,077	-0,032
-300,008	-200,000	-0,014	0,079
-298,993	105,984	0,091	0,079
-297,978	-200,000	0,000	-0,100
-296,964	800,000	-0,035	0,086
-295,949	-200,000	0,021	0,194
-294,935	-200,000	-0,012	0,073
-293,920	-173,279	-0,108	0,002
-292,905	-41,690	0,151	-0,056
-291,891	-67,433	0,046	-0,013
-290,876	349,969	0,033	0,048
-289,862	627,158	-0,064	0,118
-288,847	800,000	0,014	0,031
-287,832	168,871	-0,087	0,091
-286,818	173,774	-0,004	0,004
-285,803	-200,000	0,002	0,085
-284,789	-17,470	0,043	-0,020
-283,774	213,559	0,091	0,105
-282,759	731,723	-0,024	-0,048
-281,745	252,212	0,065	0,081
-280,730	800,000	-0,049	-0,102
-279,716	800,000	0,055	-0,113
-278,701	248,938	0,101	-0,125
-277,686	-200,000	0,021	0,184
-276,672	-200,000	-0,010	0,033
-275,657	318,812	0,064	0,089
-274,643	800,000	0,061	-0,151
-273,628	500,714	-0,035	-0,060
-272,613	-200,000	0,002	-0,154
-271,599	2,808	-0,115	-0,061
-270,584	-200,000	0,024	0,095
-269,570	114,010	0,079	0,070
-268,555	-5,138	-0,010	-0,005
-267,540	-200,000	0,015	-0,066
-266,526	-115,480	0,031	-0,004
-265,511	41,500	0,099	0,065
-264,497	280,108	0,046	0,060
-263,482	-34,056	0,156	-0,062
-262,467	800,000	0,015	0,047
-261,453	530,926	-0,063	-0,109
-260,438	477,937	-0,065	0,107
-259,424	-72,509	0,070	-0,019
-258,409	133,916	0,023	0,021
-257,395	800,000	0,011	-0,025
-256,380	0,975	-0,113	-0,059
-255,365	-86,199	0,089	0,020
-254,351	-200,000	-0,002	0,032
-253,336	-200,000	0,028	-0,159
-252,322	6,834	-0,099	0,054
-251,307	-24,596	0,111	-0,048
-250,292	-67,709	0,032	0,009
-249,278	-200,000	0,043	-0,148
-248,263	33,673	0,032	0,020
-247,249	283,426	-0,101	-0,133
-246,234	800,000	-0,023	-0,073
-245,219	-200,000	0,017	-0,162
-244,205	800,000	-0,060	-0,172
-243,190	-113,185	-0,061	-0,009
-242,176	5,478	-0,079	0,042
-241,161	-200,000	-0,014	-0,050
-240,146	66,461	-0,041	-0,030
-239,132	279,136	-0,012	-0,016
-238,117	182,631	-0,044	0,048
-237,103	-200,000	0,020	-0,079
-236,088	31,880	0,069	-0,043
-235,073	-200,000	0,021	0,127
-234,059	-200,000	0,006	0,190
-233,044	-200,000	-0,021	0,117
-232,030	505,094	0,030	0,051
-231,015	22,892	-0,084	0,050
-230,000	800,000	0,004	-0,012
-228,986	542,537	0,026	0,046
-227,971	262,165	-0,032	-0,041
-226,957	-200,000	-0,032	0,171
-225,942	-200,000	0,017	0,166
-224,927	-54,039	0,111	-0,037
-223,913	-23,120	-0,105	-0,046
-222,898	128,070	-0,144	-0,134
-221,884	-200,000	0,003	0,027
-220,869	-107,391	0,062	0,010
-219,855	-200,000	0,000	0,001
-218,840	52,857	0,114	-0,079
-217,825	-200,000	-0,003	-0,099
-216,811	55,268	0,057	-0,040
-215,796	11,439	-0,053	-0,029
-214,782	129,796	-0,090	-0,084
-213,767	-17,825	0,073	-0,033
-212,752	349,003	0,059	-0,084
-211,738	-200,000	0,015	-0,058
-210,723	-79,056	0,109	0,027
-209,709	156,191	0,045	-0,046
-208,694	-200,000	-0,001	0,022
-207,679	-81,441	-0,153	0,036
-206,665	-50,939	0,016	-0,005
-205,650	12,196	0,206	0,115
-204,636	800,000	0,035	0,077
-203,621	-50,174	0,066	0,023
-202,606	194,104	0,082	-0,090
-201,592	-166,969	-0,143	0,004
-200,577	800,000	-0,033	-0,092
-199,563	800,000	0,042	0,094
-198,548	130,037	-0,104	0,097
-197,533	-143,739	-0,055	0,004
-196,519	800,000	0,076	0,159
-195,504	337,419	0,050	-0,070
-194,490	139,307	0,045	-0,043
-193,475	-138,967	-0,050	-0,004
-192,460	800,000	-0,028	0,077
-191,446	-200,000	0,002	0,103
-190,431	241,407	0,075	0,091
-189,417	-48,513	-0,072	-0,025
-188,402	-200,000	-0,010	-0,057
-187,387	4,172	-0,138	-0,073
-186,373	95,459	0,140	-0,116
-185,358	391,245	-0,101	0,154
-184,344	80,454	0,072	0,056
-183,329	-85,980	0,196	0,044
-182,315	-51,370	-0,117	-0,040
-181,300	-69,910	-0,061	-0,017
-180,285	-3,542	-0,007	0,003
-179,271	57,517	-0,066	-0,047
-178,256	7,074	0,098	0,053
-177,242	166,180	0,061	-0,062
-176,227	800,000	-0,064	0,148
-175,212	-105,174	0,066	-0,011
-174,198	-90,472	-0,118	0,025
-173,183	-123,696	-0,106	0,012
-172,169	47,449	0,109	0,074
-171,154	-200,000	0,035	-0,136
-170,139	-121,819	0,111	-0,013
-169,125	-200,000	0,044	0,142
-168,110	-59,833	-0,068	0,021
-167,096	-200,000	-0,003	-0,075
-166,081	-200,000	-0,008	-0,089
-165,066	174,011	-0,085	-0,090
-164,052	-200,000	-0,023	-0,111
-163,037	-109,666	-0,064	-0,010
-162,023	-69,857	0,118	0,033
-161,008	-200,000	-0,023	0,141
-159,993	-200,000	0,009	-0,087
-158,979	-11,783	0,073	-0,034
-157,964	292,652	0,025	-0,034
-156,950	800,000	-0,036	-0,110
-155,935	800,000	-0,091	0,206
-154,920	-200,000	-0,004	0,021
-153,906	-184,168	0,077	-0,001
-152,891	194,093	-0,082	-0,090
-151,877	792,675	-0,073	-0,147
-150,862	75,652	0,075	-0,057
-149,847	-151,468	-0,086	-0,005
-148,833	-200,000	0,010	0,083
-147,818	800,000	0,011	-0,031
-146,804	-35,503	-0,044	0,017
-145,789	-39,566	-0,077	-0,029
-144,775	58,969	0,088	-0,063
-143,760	-83,129	-0,065	0,015
-142,745	494,521	-0,032	0,054
-141,731	154,773	-0,081	-0,081
-140,716	234,761	0,077	-0,093
-139,702	-188,631	-0,091	-0,001
-138,687	115,043	0,189	-0,167
-137,672	87,825	-0,023	0,018
-136,658	-147,958	-0,088	0,005
-135,643	64,690	0,107	-0,078
-134,629	-174,217	0,117	-0,002
-133,614	373,762	0,109	-0,161
-132,599	-200,000	-0,007	0,067
-131,585	-200,000	0,010	0,175
-130,570	170,576	0,032	-0,033
-129,556	-49,585	-0,061	0,021
-128,541	-200,000	-0,027	-0,115
-127,526	32,320	0,035	0,022
-126,512	20,363	0,012	-0,007
-125,497	145,456	0,097	0,095
-124,483	216,729	-0,076	0,088
-123,468	800,000	-0,043	-0,116
-122,453	-63,748	-0,035	0,010
-121,439	133,576	0,113	-0,106
-120,424	661,781	-0,035	-0,066
