DTS Sentinel unit serial number:	SN410029Multiplexer serial number:	ORYXHardware model number:	OX2-SRSoftware version number:	ORYX F/W v4,00 Oryx Data Collector v3.7.2.0data status	okinstallation	B6 Nyhavnadifferential loss correction	single-endedforward channel	channel 2reverse channel	N/Adate	2023/12/09time	05:20:08forward acquisition time	300,00reverse acquisition time	0,00gamma	499,1914k internal	0,3144k external	0,3144temperature offset calibration	1,0000default loss term (dB/km)	0,3820temperature slope calibration	1,0000multiplexer offset coefficient	1,0000multiplexer slope coefficient	1,0000fibre end	0,00T internal ref (°C)	17,81T ext. ref 1 (°C)	2,22T ext. ref 2 (°C)	2,24length (m)	temperature (°C)	Stokes	anti-Stokes-744,400	36,951	0,141	0,092
-743,385	-189,411	-0,276	-0,002
-742,371	-183,793	0,051	0,001
-741,356	-101,826	-0,380	0,067
-740,342	231,761	0,065	-0,079
-739,327	-59,566	-0,130	-0,041
-738,312	13,122	-0,081	-0,046
-737,298	-86,360	-0,246	0,056
-736,283	291,074	0,086	0,116
-735,269	-148,531	-0,267	0,016
-734,254	800,000	-0,033	0,102
-733,239	-64,768	-0,397	-0,118
-732,225	65,313	0,148	-0,111
-731,210	800,000	-0,047	0,131
-730,196	308,714	0,036	-0,049
-729,181	-200,000	-0,001	0,017
-728,167	35,812	-0,137	-0,089
-727,152	84,896	-0,028	-0,023
-726,137	-200,000	0,002	-0,042
-725,123	-200,000	-0,003	-0,053
-724,108	-154,538	-0,104	0,005
-723,094	-200,000	-0,033	-0,136
-722,079	-200,000	-0,024	-0,086
-721,064	235,632	0,034	-0,042
-720,050	142,941	0,101	-0,099
-719,035	-23,623	-0,112	0,049
-718,021	800,000	-0,035	-0,085
-717,006	173,934	-0,041	-0,044
-715,991	532,634	0,073	-0,128
-714,977	-105,871	-0,095	-0,016
-713,962	800,000	-0,033	0,094
-712,948	178,429	-0,033	-0,035
-711,933	-200,000	-0,020	0,141
-710,918	161,158	0,048	0,050
-709,904	339,293	-0,026	0,038
-708,889	271,612	0,139	-0,182
-707,875	73,232	-0,090	-0,069
-706,860	-200,000	0,037	0,149
-705,845	534,098	-0,024	-0,043
-704,831	46,471	-0,049	-0,033
-703,816	94,029	-0,032	-0,027
-702,802	70,462	-0,071	0,054
-701,787	800,000	-0,057	-0,148
-700,772	-51,558	-0,072	-0,025
-699,758	107,084	-0,088	-0,077
-698,743	392,155	0,052	-0,081
-697,729	369,103	0,100	-0,151
-696,714	-140,583	0,085	-0,006
-695,699	-8,741	-0,078	0,038
-694,685	-200,000	-0,009	0,095
-693,670	167,587	-0,004	0,004
-692,656	308,062	0,057	-0,079
-691,641	329,982	0,018	-0,025
-690,627	70,833	-0,080	0,061
-689,612	-119,878	0,079	-0,010
-688,597	-115,832	0,060	-0,008
-687,583	171,543	-0,143	-0,152
-686,568	-200,000	-0,015	0,101
-685,554	190,348	0,073	-0,081
-684,539	5,806	-0,061	0,033
-683,524	-47,179	-0,189	-0,068
-682,510	-34,376	0,099	-0,040
-681,495	-89,353	-0,041	0,009
-680,481	308,113	-0,043	-0,060
-679,466	-200,000	0,002	-0,191
-678,451	800,000	-0,057	-0,117
-677,437	221,564	-0,040	-0,048
-676,422	291,186	0,061	0,082
-675,408	90,334	0,040	-0,033
-674,393	-200,000	-0,010	-0,062
-673,378	800,000	-0,024	0,064
-672,364	-3,402	0,070	-0,036
-671,349	-70,039	-0,061	-0,017
-670,335	-130,529	-0,115	-0,011
-669,320	800,000	-0,015	-0,031
-668,305	-200,000	-0,025	-0,095
-667,291	800,000	0,037	-0,105
-666,276	697,753	0,093	-0,181
-665,262	126,058	-0,071	-0,067
-664,247	800,000	-0,036	-0,083
-663,232	-200,000	0,060	0,251
-662,218	502,529	0,034	0,058
-661,203	800,000	0,064	0,204
-660,189	11,940	0,068	0,038
-659,174	800,000	-0,044	0,103
-658,159	-200,000	-0,013	-0,098
-657,145	-18,135	-0,039	0,018
-656,130	-105,150	0,044	0,007
-655,116	348,416	0,046	-0,067
-654,101	-39,514	-0,016	-0,006
-653,086	35,924	-0,047	-0,031
-652,072	352,587	-0,053	0,078
-651,057	28,368	-0,025	0,016
-650,043	82,680	-0,095	-0,076
-649,028	326,929	-0,038	-0,054
-648,014	78,198	0,084	-0,066
-646,999	62,325	0,101	-0,074
-645,984	-200,000	0,015	-0,126
-644,970	471,461	-0,048	-0,081
-643,955	800,000	-0,079	-0,172
-642,941	43,028	0,035	-0,023
-641,926	36,611	0,066	0,043
-640,911	322,254	0,001	0,002
-639,897	46,652	0,092	0,063
-638,882	-33,382	0,029	0,012
-637,868	-103,049	-0,141	-0,024
-636,853	-109,282	-0,068	-0,010
-635,838	550,018	0,063	0,112
-634,824	-200,000	0,001	-0,032
-633,809	-64,032	-0,061	0,018
-632,795	800,000	0,020	-0,055
-631,780	4,759	0,169	0,091
-630,765	-138,427	-0,018	-0,001
-629,751	282,486	-0,058	-0,077
-628,736	57,492	-0,186	-0,134
-627,722	-200,000	0,006	-0,131
-626,707	-131,986	-0,099	-0,009
-625,692	-200,000	-0,003	-0,043
-624,678	-200,000	0,020	0,086
-623,663	-137,072	0,081	0,007
-622,649	187,147	-0,106	-0,116
-621,634	-153,727	-0,075	-0,004
-620,619	230,845	-0,094	-0,114
-619,605	-139,780	0,103	0,008
-618,590	-75,553	-0,050	-0,013
-617,576	-116,851	0,046	0,006
-616,561	-200,000	0,007	0,122
-615,546	138,291	-0,021	0,021
-614,532	-94,421	-0,116	0,023
-613,517	-9,949	-0,111	0,054
-612,503	-200,000	0,002	0,071
-611,488	-200,000	0,019	0,146
-610,474	-43,692	-0,165	0,061
-609,459	126,543	0,133	-0,124
-608,444	-53,714	-0,120	-0,040
-607,430	-5,675	-0,070	-0,035
-606,415	706,045	0,078	-0,152
-605,401	85,613	-0,079	-0,064
-604,386	83,635	0,035	0,028
-603,371	800,000	-0,032	0,102
-602,357	800,000	0,052	-0,109
-601,342	-134,385	-0,172	-0,015
-600,328	56,789	-0,074	0,053
-599,313	39,239	-0,010	-0,006
-598,298	137,904	-0,074	-0,072
-597,284	800,000	-0,026	-0,060
-596,269	133,519	-0,058	0,055
-595,255	-75,590	0,133	-0,034
-594,240	800,000	0,017	-0,036
-593,225	-88,670	0,154	-0,034
-592,211	16,620	0,063	-0,036
-591,196	423,887	-0,056	-0,088
-590,182	-200,000	-0,019	0,149
-589,167	1,003	-0,062	-0,033
-588,152	-200,000	0,030	-0,100
-587,138	46,073	0,170	-0,116
-586,123	-138,417	0,107	-0,009
-585,109	-13,088	-0,159	-0,076
-584,094	31,155	-0,022	-0,014
-583,079	-200,000	-0,001	0,016
-582,065	-96,872	0,077	-0,015
-581,050	800,000	-0,012	0,029
-580,036	301,084	-0,094	0,128
-579,021	94,363	-0,113	-0,094
-578,006	-200,000	-0,005	-0,027
-576,992	28,292	0,013	-0,008
-575,977	405,728	-0,058	-0,090
-574,963	37,130	0,012	0,008
-573,948	-56,844	0,164	0,053
-572,934	-200,000	-0,014	-0,050
-571,919	800,000	0,023	0,047
-570,904	-68,223	0,032	-0,009
-569,890	800,000	-0,008	-0,023
-568,875	-200,000	0,009	0,100
-567,861	800,000	-0,011	-0,024
-566,846	800,000	-0,029	0,085
-565,831	779,557	-0,057	-0,115
-564,817	154,670	-0,094	-0,095
-563,802	399,546	-0,059	-0,091
-562,788	-15,198	-0,009	0,004
-561,773	-200,000	0,019	0,159
-560,758	-55,340	0,148	-0,049
-559,744	-22,320	-0,021	0,009
-558,729	800,000	-0,024	0,053
-557,715	-90,933	-0,037	0,008
-556,700	-40,370	-0,149	0,057
-555,685	103,091	-0,030	-0,026
-554,671	-63,444	0,141	0,042
-553,656	138,887	0,139	0,134
-552,642	53,674	0,095	0,067
-551,627	375,977	-0,055	-0,082
-550,612	459,105	0,034	-0,057
-549,598	484,918	0,077	-0,129
-548,583	-103,759	-0,060	-0,010
-547,569	-200,000	-0,004	0,053
-546,554	431,908	0,037	0,059
-545,539	634,599	-0,045	-0,084
-544,525	800,000	-0,026	0,081
-543,510	406,143	-0,028	-0,044
-542,496	-25,793	0,052	-0,023
-541,481	800,000	-0,046	0,114
-540,466	-163,583	-0,036	0,001
-539,452	24,702	0,078	0,047
-538,437	800,000	0,023	0,050
-537,423	-69,807	0,052	0,015
-536,408	-200,000	0,018	0,127
-535,393	800,000	0,087	0,216
-534,379	-105,233	-0,127	0,021
-533,364	1,836	0,071	-0,037
-532,350	-200,000	-0,010	0,079
-531,335	-28,063	-0,035	0,015
-530,321	171,148	0,041	0,043
-529,306	160,969	0,041	-0,043
-528,291	139,162	0,100	-0,097
-527,277	-162,934	-0,158	-0,006
-526,262	516,985	-0,088	-0,152
-525,248	28,767	0,006	-0,003
-524,233	146,849	0,013	0,013
-523,218	29,094	-0,062	-0,038
-522,204	582,957	0,119	-0,216
-521,189	250,955	-0,121	-0,151
-520,175	-8,780	-0,182	-0,089
-519,160	-160,010	0,047	-0,002
-518,145	239,279	0,109	0,134
-517,131	93,529	0,101	0,084
-516,116	351,759	0,055	0,081
-515,102	-46,847	-0,125	0,045
-514,087	800,000	0,023	0,070
-513,072	800,000	-0,047	0,149
-512,058	25,457	-0,089	-0,054
-511,043	-200,000	0,015	0,121
-510,029	-158,796	-0,054	-0,002
-509,014	-200,000	0,013	-0,166
-507,999	299,340	-0,099	-0,134
-506,985	428,343	-0,087	-0,139
-505,970	-200,000	-0,010	-0,041
-504,956	800,000	-0,090	-0,190
-503,941	-126,340	0,059	-0,006
-502,926	-160,194	0,171	0,007
-501,912	-26,843	0,115	-0,049
-500,897	-53,286	-0,081	-0,027
-499,883	-73,264	0,146	0,039
-498,868	-131,514	-0,112	0,011
-497,853	-54,524	-0,038	-0,013
-496,839	-22,032	0,040	-0,018
-495,824	800,000	-0,018	-0,041
-494,810	-200,000	0,050	0,183
-493,795	224,686	-0,070	0,083
-492,781	-91,112	0,076	-0,016
-491,766	36,340	-0,045	0,029
-490,751	-200,000	0,014	-0,130
-489,737	-200,000	0,008	0,085
-488,722	-200,000	0,001	0,171
-487,708	-200,000	0,002	0,150
-486,693	52,471	-0,127	0,089
-485,678	176,312	0,014	0,015
-484,664	-146,348	-0,015	0,001
-483,649	344,097	-0,093	-0,135
-482,635	800,000	0,022	-0,053
-481,620	-200,000	-0,003	0,180
-480,605	213,183	0,103	0,119
-479,591	296,279	-0,019	0,026
-478,576	-26,803	0,063	0,027
-477,562	-136,433	-0,073	0,006
-476,547	251,748	0,090	0,112
-475,532	-39,391	0,068	0,026
-474,518	-61,248	-0,020	0,006
-473,503	69,801	0,045	0,034
-472,489	212,629	0,006	-0,007
-471,474	-190,815	-0,049	0,000
-470,459	241,959	-0,037	-0,045
-469,445	-37,726	-0,032	0,013
-468,430	206,046	0,030	-0,034
-467,416	36,765	-0,076	0,049
-466,401	-200,000	0,001	0,022
-465,386	26,381	0,122	-0,074
-464,372	-200,000	-0,010	-0,072
-463,357	-200,000	0,010	-0,129
-462,343	470,045	-0,106	-0,175
-461,328	-200,000	0,001	0,009
-460,313	691,337	-0,059	-0,114
-459,299	-116,238	0,047	-0,006
-458,284	-144,205	-0,127	-0,009
-457,270	379,503	0,089	0,133
-456,255	634,178	0,063	-0,117
-455,241	-117,918	-0,124	0,016
-454,226	-27,626	-0,037	-0,016
-453,211	800,000	-0,014	-0,033
-452,197	29,982	-0,064	0,040
-451,182	-91,336	0,039	-0,008
-450,168	-144,082	-0,151	-0,010
-449,153	-150,908	-0,092	0,005
-448,138	19,225	0,087	-0,051
-447,124	239,170	-0,099	0,121
-446,109	800,000	-0,017	0,038
-445,095	800,000	0,044	-0,093
-444,080	800,000	0,035	0,080
-443,065	-200,000	0,018	-0,064
-442,051	-74,198	-0,193	-0,051
-441,036	-120,176	0,076	-0,009
-440,022	-120,129	0,127	0,016
-439,007	-107,858	-0,117	-0,019
-437,992	-148,939	0,036	-0,002
-436,978	-20,406	0,109	-0,049
-435,963	800,000	-0,031	0,076
-434,949	-23,738	0,085	0,037
-433,934	76,266	0,189	-0,146
-432,919	-183,762	-0,066	0,001
-431,905	193,599	-0,125	0,139
-430,890	-141,270	-0,071	-0,005
-429,876	-50,764	0,038	0,013
-428,861	609,976	0,061	-0,111
-427,846	-200,000	0,003	-0,092
-426,832	-200,000	-0,008	0,058
-425,817	-200,000	0,001	0,129
-424,803	282,420	-0,062	0,081
-423,788	430,984	0,027	0,043
-422,773	-30,378	0,121	0,050
-421,759	2,222	-0,089	0,047
-420,744	17,515	0,021	0,012
-419,730	-46,877	0,100	-0,036
-418,715	-74,099	-0,146	-0,038
-417,701	-200,000	0,003	-0,026
-416,686	667,558	0,065	0,123
-415,671	400,477	-0,011	-0,018
-414,657	591,022	-0,071	0,128
-413,642	-200,000	-0,012	0,062
-412,628	-160,511	0,094	-0,004
-411,613	-109,554	0,136	0,021
-410,598	800,000	0,036	-0,104
-409,584	800,000	-0,030	-0,094
-408,569	800,000	-0,047	0,129
-407,555	-144,306	-0,065	-0,004
-406,540	122,740	0,109	-0,100
-405,525	275,371	0,092	0,120
-404,511	-27,711	-0,152	-0,064
-403,496	-200,000	0,012	-0,065
-402,482	-18,890	-0,089	0,040
-401,467	121,338	-0,041	0,038
-400,452	-200,000	0,037	0,122
-399,438	226,178	-0,097	0,115
-398,423	-200,000	0,038	0,163
-397,409	-186,085	-0,008	0,000
-396,394	-98,400	-0,069	0,013
-395,379	-172,202	0,048	-0,001
-394,365	800,000	-0,062	0,149
-393,350	-55,753	-0,065	0,021
-392,336	-99,566	0,063	0,011
-391,321	-200,000	-0,042	0,138
-390,306	120,460	-0,087	-0,079
-389,292	800,000	-0,043	-0,130
-388,277	214,218	0,071	-0,082
-387,263	-200,000	0,044	0,148
-386,248	-16,801	0,081	0,037
-385,233	23,731	0,060	0,036
-384,219	800,000	-0,034	-0,082
-383,204	800,000	0,049	-0,122
-382,190	800,000	0,045	-0,107
-381,175	149,562	-0,040	-0,040
-380,160	-200,000	0,014	-0,082
-379,146	322,816	0,032	-0,044
-378,131	-105,678	-0,175	-0,029
-377,117	800,000	0,036	0,074
-376,102	-200,000	-0,052	-0,182
-375,088	-71,294	-0,145	0,039
-374,073	-163,633	0,212	0,007
-373,058	-200,000	-0,005	-0,054
-372,044	-116,165	0,198	-0,027
-371,029	-200,000	0,009	-0,134
-370,015	191,472	-0,055	0,061
-369,000	-13,847	0,071	-0,033
-367,985	746,955	0,094	0,186
-366,971	-200,000	-0,000	0,045
-365,956	770,860	0,021	0,043
-364,942	800,000	0,060	0,155
-363,927	-186,248	-0,142	-0,001
-362,912	-200,000	-0,008	0,107
-361,898	800,000	-0,067	0,140
-360,883	-200,000	0,002	-0,038
-359,869	-200,000	-0,007	0,042
-358,854	-200,000	0,011	-0,169
-357,839	146,703	0,059	0,058
-356,825	522,759	-0,051	-0,088
-355,810	-43,184	0,103	-0,038
-354,796	17,062	-0,051	-0,029
-353,781	524,930	0,022	0,038
-352,766	-200,000	-0,028	-0,126
-351,752	-29,587	0,076	-0,031
-350,737	-59,411	0,123	0,038
-349,723	-77,990	0,087	-0,022
-348,708	374,810	0,068	-0,101
-347,693	382,794	0,041	-0,061
-346,679	26,256	-0,168	-0,102
-345,664	-33,659	-0,135	-0,054
-344,650	-86,884	-0,042	-0,009
-343,635	10,934	-0,070	0,039
-342,620	-149,977	0,064	-0,004
-341,606	-200,000	0,000	-0,047
-340,591	286,141	0,043	-0,057
-339,577	258,324	0,040	-0,051
-338,562	-200,000	-0,047	-0,170
-337,548	-80,048	0,138	-0,034
-336,533	-200,000	0,007	0,114
-335,518	-200,000	-0,013	0,069
-334,504	364,492	0,091	0,134
-333,489	40,010	-0,007	0,005
-332,475	106,855	0,027	0,024
-331,460	-22,055	-0,099	-0,044
-330,445	-125,405	0,108	0,012
-329,431	-102,834	0,099	-0,017
-328,416	122,774	0,085	0,077
-327,402	104,378	-0,143	-0,123
-326,387	119,961	-0,098	0,088
-325,372	-162,911	0,145	-0,005
-324,358	11,752	-0,090	0,050
-323,343	-131,096	0,083	-0,008
-322,329	800,000	0,019	0,046
-321,314	-118,831	0,097	0,012
-320,299	157,333	-0,084	0,085
-319,285	-127,947	0,102	-0,011
-318,270	-123,371	-0,045	-0,005
-317,256	0,709	-0,086	-0,045
-316,241	270,847	0,023	0,030
-315,226	-55,184	-0,142	0,046
-314,212	143,052	0,042	0,041
-313,197	-200,000	0,045	0,155
-312,183	506,710	-0,083	0,141
-311,168	800,000	0,018	-0,043
-310,153	183,445	0,079	-0,085
-309,139	652,052	-0,028	0,052
-308,124	2,218	0,093	-0,049
-307,110	-200,000	0,037	-0,138
-306,095	359,304	0,062	-0,091
-305,080	-109,508	-0,118	0,018
-304,066	-200,000	-0,005	-0,059
-303,051	5,881	-0,050	-0,027
-302,037	726,074	-0,052	-0,101
-301,022	11,201	0,130	-0,072
-300,008	-107,643	0,073	0,011
-298,993	772,724	-0,045	0,090
-297,978	263,629	-0,070	-0,089
-296,964	-59,375	-0,043	-0,013
-295,949	-200,000	-0,011	0,117
-294,935	-66,810	0,092	0,026
-293,920	396,427	0,068	-0,103
-292,905	114,933	0,019	-0,017
-291,891	-19,636	0,070	0,032
-290,876	-85,373	-0,038	0,009
-289,862	103,082	-0,054	-0,046
-288,847	-165,843	-0,026	0,001
-287,832	-31,359	0,058	-0,024
-286,818	460,026	-0,070	-0,114
-285,803	242,239	0,058	-0,070
-284,789	184,824	0,118	-0,128
-283,774	307,382	0,056	-0,076
-282,759	-77,956	-0,128	0,032
-281,745	632,720	0,023	-0,042
-280,730	-141,197	0,134	0,010
-279,716	-70,550	-0,039	-0,011
-278,701	-71,723	0,090	0,024
-277,686	800,000	0,041	0,085
-276,672	-153,343	0,073	-0,004
-275,657	800,000	-0,021	0,046
-274,643	307,862	-0,087	0,118
-273,628	42,549	-0,107	-0,071
-272,613	800,000	-0,037	0,076
-271,599	-200,000	0,048	0,195
-270,584	109,744	0,088	-0,076
-269,570	-200,000	0,002	-0,077
-268,555	800,000	0,025	0,054
-267,540	185,267	-0,083	0,090
-266,526	-200,000	0,002	0,125
-265,511	-169,168	0,124	-0,003
-264,497	-67,462	-0,028	-0,008
-263,482	710,745	0,097	0,188
-262,467	476,835	-0,068	0,111
-261,453	-200,000	0,009	-0,040
-260,438	-41,060	-0,014	-0,005
-259,424	565,635	-0,036	-0,065
-258,409	38,789	-0,154	0,100
-257,395	-200,000	0,006	-0,105
-256,380	216,327	0,097	0,113
-255,365	-200,000	0,006	0,098
-254,351	106,276	-0,065	-0,056
-253,336	117,509	-0,020	-0,018
-252,322	-200,000	-0,010	-0,041
-251,307	-200,000	-0,013	-0,072
-250,292	-57,697	-0,036	-0,012
-249,278	237,197	0,103	0,124
-248,263	-188,126	-0,053	0,000
-247,249	-200,000	0,009	0,080
-246,234	330,799	0,077	0,108
-245,219	-69,149	-0,065	-0,018
-244,205	-200,000	0,003	0,038
-243,190	800,000	0,053	0,119
-242,176	-173,198	-0,072	0,002
-241,161	-200,000	0,007	0,281
-240,146	-70,535	0,121	0,033
-239,132	-200,000	-0,002	0,072
-238,117	117,008	-0,040	-0,036
-237,103	-200,000	0,005	-0,068
-236,088	44,375	0,070	-0,047
-235,073	-197,420	-0,054	-0,000
-234,059	68,003	0,120	-0,089
-233,044	664,001	-0,015	-0,029
-232,030	-200,000	0,009	-0,085
-231,015	63,386	-0,021	-0,015
-230,000	426,336	-0,032	-0,051
-228,986	77,071	0,120	0,093
-227,971	-200,000	0,003	-0,016
-226,957	439,074	0,039	-0,062
-225,942	-22,037	-0,070	-0,031
-224,927	800,000	-0,023	-0,056
-223,913	4,936	0,024	-0,013
-222,898	-1,217	0,209	0,107
-221,884	-66,710	-0,102	0,029
-220,869	-200,000	0,006	0,070
-219,855	1,547	0,137	0,071
-218,840	174,107	0,079	0,082
-217,825	370,412	0,015	-0,022
-216,811	-11,850	0,036	-0,017
-215,796	-60,141	-0,031	-0,010
-214,782	55,898	-0,043	0,030
-213,767	-200,000	0,004	0,033
-212,752	129,955	0,027	-0,025
-211,738	365,732	0,024	0,035
-210,723	395,582	-0,052	0,079
-209,709	193,422	0,003	0,003
-208,694	-113,252	0,039	-0,006
-207,679	-27,567	-0,120	-0,050
-206,665	177,672	-0,018	0,019
-205,650	-200,000	0,007	-0,123
-204,636	110,618	-0,127	0,110
-203,621	800,000	0,039	-0,079
-202,606	20,512	-0,103	-0,060
-201,592	-61,996	-0,089	-0,027
-200,577	-51,916	0,027	0,009
-199,563	127,539	0,012	0,011
-198,548	-38,250	0,148	0,057
-197,533	-100,431	0,109	0,019
-196,519	-93,226	0,064	0,013
-195,504	-52,814	-0,137	0,045
-194,490	-156,154	-0,169	-0,008
-193,475	-200,000	0,000	-0,063
-192,460	-200,000	-0,006	0,121
-191,446	-66,329	-0,170	0,049
-190,431	800,000	0,016	0,037
-189,417	-200,000	-0,050	0,236
-188,402	-200,000	-0,022	-0,150
-187,387	97,830	0,119	-0,099
-186,373	-48,651	0,057	0,020
-185,358	65,666	-0,030	-0,022
-184,344	-88,546	0,121	-0,026
-183,329	133,435	-0,095	-0,089
-182,315	-105,847	-0,104	-0,017
-181,300	-18,250	0,030	-0,013
-180,285	400,394	-0,067	-0,102
-179,271	6,065	-0,048	-0,026
-178,256	467,589	0,053	0,086
-177,242	55,986	-0,068	0,048
-176,227	9,428	-0,069	0,038
-175,212	-200,000	0,005	-0,058
-174,198	66,772	-0,022	-0,017
-173,183	-200,000	0,036	0,156
-172,169	196,913	-0,083	-0,092
-171,154	-200,000	0,003	-0,035
-170,139	-191,981	-0,044	0,000
-169,125	-200,000	0,010	0,048
-168,110	201,715	0,053	0,059
-167,096	-200,000	-0,001	0,079
-166,081	78,618	0,037	-0,029
-165,066	-200,000	-0,020	-0,090
-164,052	-200,000	0,017	-0,132
-163,037	94,018	-0,073	-0,060
-162,023	-61,388	0,184	-0,056
-161,008	129,887	-0,049	0,045
-159,993	515,335	0,068	-0,115
-158,979	-96,056	-0,090	0,017
-157,964	-200,000	-0,006	0,025
-156,950	131,561	0,033	-0,031
-155,935	526,925	0,065	0,112
-154,920	800,000	0,041	-0,083
-153,906	-31,746	0,097	-0,039
-152,891	-94,891	0,042	-0,008
-151,877	-106,730	-0,160	-0,025
-150,862	800,000	0,044	-0,095
-149,847	-89,909	0,086	-0,018
-148,833	-85,703	0,154	-0,034
-147,818	-129,960	-0,085	0,008
-146,804	-68,639	-0,061	0,017
-145,789	800,000	-0,042	-0,106
-144,775	259,150	0,050	0,063
-143,760	800,000	-0,059	0,119
-142,745	361,057	-0,049	-0,071
-141,731	105,897	0,100	-0,086
-140,716	95,462	0,071	0,059
-139,702	800,000	-0,027	0,077
-138,687	650,508	-0,031	0,058
-137,672	103,962	-0,066	0,056
-136,658	-78,673	0,043	-0,011
-135,643	-67,776	-0,131	-0,037
-134,629	800,000	-0,034	0,092
-133,614	-200,000	-0,014	0,048
-132,599	-65,589	0,087	-0,025
-131,585	800,000	0,025	-0,066
-130,570	800,000	0,028	0,086
-129,556	-200,000	-0,011	0,110
-128,541	800,000	-0,004	-0,010
-127,526	-17,947	0,082	-0,037
-126,512	399,306	0,033	0,051
-125,497	331,976	0,118	0,165
-124,483	45,275	-0,021	0,014
-123,468	-200,000	0,011	-0,089
-122,453	800,000	0,018	0,049
-121,439	-0,062	0,098	-0,050
-120,424	279,683	0,012	0,016
-119,410	-119,310	0,120	0,015
