DTS Sentinel unit serial number:	SN410029Multiplexer serial number:	ORYXHardware model number:	OX2-SRSoftware version number:	ORYX F/W v4,00 Oryx Data Collector v3.7.2.0data status	okinstallation	B6 Nyhavnadifferential loss correction	single-endedforward channel	channel 2reverse channel	N/Adate	2023/12/11time	07:00:08forward acquisition time	300,00reverse acquisition time	0,00gamma	499,1914k internal	0,3126k external	0,3126temperature offset calibration	1,0000default loss term (dB/km)	0,3820temperature slope calibration	1,0000multiplexer offset coefficient	1,0000multiplexer slope coefficient	1,0000fibre end	0,00T internal ref (°C)	19,27T ext. ref 1 (°C)	2,26T ext. ref 2 (°C)	2,31length (m)	temperature (°C)	Stokes	anti-Stokes-744,400	72,644	0,030	-0,023
-743,385	-29,814	-0,337	0,142
-742,371	262,798	0,105	0,136
-741,356	-101,286	-0,281	0,051
-740,342	-200,000	-0,009	0,049
-739,327	16,407	-0,214	-0,126
-738,312	800,000	-0,037	-0,098
-737,298	-184,376	-0,286	0,003
-736,283	800,000	0,049	-0,125
-735,269	82,229	-0,189	0,153
-734,254	-144,318	0,140	-0,010
-733,239	-116,772	-0,491	-0,066
-732,225	800,000	0,043	-0,104
-731,210	-21,093	0,097	0,044
-730,196	167,718	-0,134	-0,142
-729,181	800,000	-0,041	-0,092
-728,167	800,000	0,054	-0,125
-727,152	-200,000	-0,012	-0,061
-726,137	-110,085	-0,138	-0,021
-725,123	800,000	-0,028	-0,062
-724,108	-200,000	-0,002	-0,145
-723,094	-110,674	0,057	0,009
-722,079	-127,945	-0,110	0,012
-721,064	196,738	0,100	0,114
-720,050	-36,849	-0,037	0,015
-719,035	147,104	-0,066	0,066
-718,021	524,073	0,037	-0,066
-717,006	-200,000	-0,027	-0,089
-715,991	18,128	-0,052	-0,031
-714,977	-101,965	0,017	-0,003
-713,962	-136,667	-0,091	-0,008
-712,948	28,021	0,116	0,073
-711,933	-123,408	-0,071	0,008
-710,918	-200,000	-0,005	0,070
-709,904	-200,000	0,019	-0,114
-708,889	-200,000	-0,015	-0,051
-707,875	-132,889	0,033	-0,003
-706,860	-91,291	-0,068	0,014
-705,845	297,273	0,049	-0,068
-704,831	247,921	-0,094	-0,119
-703,816	-200,000	0,002	0,185
-702,802	70,480	-0,062	0,048
-701,787	800,000	-0,047	-0,106
-700,772	48,449	-0,046	-0,032
-699,758	-200,000	-0,006	0,038
-698,743	-164,330	-0,111	0,004
-697,729	1,628	0,014	-0,008
-696,714	800,000	-0,023	-0,071
-695,699	258,728	0,024	-0,031
-694,685	366,456	-0,108	-0,163
-693,670	-200,000	-0,015	-0,157
-692,656	-127,812	0,171	0,018
-691,641	112,636	0,091	0,082
-690,627	-154,681	0,168	-0,008
-689,612	-118,999	-0,094	0,012
-688,597	-200,000	-0,006	0,028
-687,583	-200,000	0,012	-0,058
-686,568	-200,000	-0,002	-0,053
-685,554	-45,291	-0,050	-0,018
-684,539	800,000	0,041	0,130
-683,524	67,454	-0,010	0,008
-682,510	-53,165	-0,061	0,021
-681,495	69,437	-0,182	-0,139
-680,481	800,000	-0,044	-0,113
-679,466	-200,000	-0,029	0,000
-678,451	202,590	0,014	-0,016
-677,437	261,696	-0,066	-0,085
-676,422	746,041	-0,052	-0,105
-675,408	-74,393	-0,084	-0,022
-674,393	-46,131	-0,127	0,046
-673,378	38,134	-0,174	0,115
-672,364	-55,322	-0,115	-0,038
-671,349	5,550	-0,058	0,031
-670,335	800,000	-0,035	-0,090
-669,320	88,334	-0,135	0,112
-668,305	48,014	0,108	0,075
-667,291	373,279	0,062	-0,094
-666,276	140,714	-0,052	0,051
-665,262	553,761	0,005	0,009
-664,247	800,000	-0,031	0,063
-663,232	-67,153	0,043	-0,013
-662,218	-60,917	-0,027	-0,008
-661,203	800,000	0,015	-0,041
-660,189	97,637	0,031	0,026
-659,174	-7,154	0,030	-0,015
-658,159	800,000	-0,069	-0,188
-657,145	-66,839	-0,133	0,039
-656,130	40,061	-0,064	0,042
-655,116	-70,092	-0,115	-0,032
-654,101	192,405	-0,032	0,036
-653,086	-89,304	-0,073	0,016
-652,072	-4,027	0,120	0,061
-651,057	66,987	0,109	-0,082
-650,043	568,702	0,005	-0,009
-649,028	-200,000	-0,015	0,099
-648,014	138,647	-0,021	-0,020
-646,999	28,972	-0,060	-0,037
-645,984	800,000	-0,017	-0,051
-644,970	-65,802	0,013	-0,004
-643,955	-50,769	-0,071	-0,025
-642,941	81,597	-0,061	-0,049
-641,926	346,611	-0,046	-0,068
-640,911	-37,092	-0,266	0,105
-639,897	800,000	-0,039	0,089
-638,882	-116,124	-0,100	-0,014
-637,868	-179,132	-0,124	-0,002
-636,853	290,909	-0,043	-0,058
-635,838	-200,000	-0,055	-0,196
-634,824	-200,000	-0,001	0,037
-633,809	420,017	0,030	-0,048
-632,795	800,000	-0,033	0,078
-631,780	-19,052	0,175	-0,080
-630,765	-150,848	0,026	0,001
-629,751	-25,022	-0,182	0,080
-628,736	-74,107	0,089	0,024
-627,722	105,554	0,028	-0,024
-626,707	-40,818	0,138	0,053
-625,692	-90,997	-0,031	-0,007
-624,678	-95,765	-0,084	0,016
-623,663	255,613	0,079	0,101
-622,649	62,527	-0,143	-0,105
-621,634	7,149	-0,105	-0,058
-620,619	-200,000	-0,028	-0,122
-619,605	-10,399	-0,048	-0,023
-618,590	731,789	0,032	0,063
-617,576	-200,000	-0,017	0,166
-616,561	-200,000	0,011	0,047
-615,546	-32,202	-0,088	0,036
-614,532	-81,928	-0,108	-0,026
-613,517	-200,000	-0,148	0,000
-612,503	127,100	0,131	0,123
-611,488	-70,010	0,136	0,038
-610,474	800,000	-0,038	0,105
-609,459	153,833	-0,073	0,075
-608,444	16,204	-0,072	-0,042
-607,430	-200,000	0,001	-0,075
-606,415	800,000	-0,038	0,086
-605,401	-200,000	0,044	0,000
-604,386	64,881	0,089	-0,066
-603,371	160,512	-0,069	0,071
-602,357	-200,000	-0,013	0,122
-601,342	-200,000	-0,015	-0,147
-600,328	291,330	0,057	-0,078
-599,313	613,739	-0,039	-0,072
-598,298	115,293	-0,059	0,054
-597,284	338,202	0,059	-0,085
-596,269	-37,561	0,026	-0,010
-595,255	9,683	-0,104	-0,058
-594,240	23,574	0,026	-0,016
-593,225	0,747	-0,079	-0,042
-592,211	-200,000	0,042	-0,151
-591,196	-82,707	-0,092	0,022
-590,182	-77,267	0,110	0,028
-589,167	-200,000	-0,004	0,050
-588,152	-200,000	0,001	0,112
-587,138	70,599	-0,147	-0,113
-586,123	-200,000	0,007	-0,073
-585,109	-48,776	-0,099	0,035
-584,094	39,849	-0,016	0,011
-583,079	103,622	-0,067	0,059
-582,065	-200,000	-0,021	-0,078
-581,050	800,000	-0,027	0,082
-580,036	314,849	0,075	0,104
-579,021	-88,828	-0,119	0,026
-578,006	137,196	-0,032	-0,031
-576,992	-133,972	0,120	-0,011
-575,977	-73,803	0,039	0,011
-574,963	688,117	-0,018	0,035
-573,948	-200,000	-0,026	0,128
-572,934	36,450	-0,064	-0,042
-571,919	-40,648	-0,032	0,012
-570,904	-200,000	0,008	0,152
-569,890	80,292	-0,085	0,068
-568,875	2,013	0,092	0,049
-567,861	-200,000	0,010	-0,057
-566,846	21,599	-0,076	-0,045
-565,831	-200,000	0,018	0,076
-564,817	584,199	-0,054	-0,099
-563,802	-200,000	-0,033	-0,225
-562,788	800,000	0,039	0,085
-561,773	-122,341	-0,021	0,003
-560,758	-167,509	0,162	-0,005
-559,744	-187,543	0,107	0,001
-558,729	47,428	-0,161	0,111
-557,715	800,000	0,023	-0,066
-556,700	800,000	-0,043	0,100
-555,685	-17,227	-0,011	0,005
-554,671	-27,978	0,138	-0,059
-553,656	-55,234	0,149	-0,049
-552,642	73,908	0,073	0,057
-551,627	258,590	0,029	-0,038
-550,612	-58,289	-0,019	0,006
-549,598	46,292	-0,101	-0,069
-548,583	-3,048	-0,155	0,080
-547,569	-98,073	0,076	0,014
-546,554	-58,412	0,098	0,031
-545,539	-200,000	-0,002	0,042
-544,525	-200,000	-0,004	-0,048
-543,510	-184,323	-0,105	0,001
-542,496	-200,000	0,026	0,094
-541,481	-3,326	-0,071	0,036
-540,466	-136,038	0,121	-0,010
-539,452	279,427	-0,039	0,052
-538,437	-72,995	0,143	-0,039
-537,423	-186,484	0,110	0,001
-536,408	-26,057	0,073	0,032
-535,393	-200,000	-0,006	0,060
-534,379	28,615	-0,028	0,018
-533,364	-200,000	0,022	0,203
-532,350	238,589	-0,053	-0,065
-531,335	-4,919	0,113	0,057
-530,321	-143,820	0,084	0,006
-529,306	1,691	-0,141	-0,075
-528,291	-139,644	0,028	0,002
-527,277	580,561	0,018	0,033
-526,262	800,000	0,023	-0,072
-525,248	58,870	0,081	0,059
-524,233	-200,000	-0,004	0,089
-523,218	-136,492	-0,079	-0,007
-522,204	484,414	0,061	0,103
-521,189	269,637	-0,107	-0,139
-520,175	-200,000	0,021	-0,148
-519,160	-200,000	0,014	-0,052
-518,145	-200,000	-0,029	-0,108
-517,131	-53,316	0,130	0,044
-516,116	31,184	0,182	-0,115
-515,102	800,000	-0,020	-0,044
-514,087	-200,000	-0,007	-0,109
-513,072	182,501	0,044	-0,048
-512,058	-200,000	0,001	0,003
-511,043	98,166	-0,082	-0,070
-510,029	297,001	0,069	0,094
-509,014	-70,460	0,081	0,023
-507,999	800,000	0,025	-0,051
-506,985	-181,245	0,057	-0,001
-505,970	-74,765	-0,151	0,040
-504,956	800,000	0,029	-0,062
-503,941	13,598	-0,092	0,053
-502,926	31,496	0,091	0,058
-501,912	524,609	0,087	0,151
-500,897	800,000	-0,041	0,098
-499,883	800,000	-0,021	-0,058
-498,868	147,617	0,069	-0,069
-497,853	-200,000	-0,004	0,121
-496,839	45,815	-0,077	0,052
-495,824	800,000	-0,036	0,109
-494,810	234,904	-0,087	-0,107
-493,795	-200,000	-0,007	0,059
-492,781	21,591	-0,124	0,074
-491,766	-200,000	-0,001	-0,139
-490,751	-0,667	-0,137	-0,071
-489,737	800,000	0,022	-0,050
-488,722	-200,000	0,004	0,065
-487,708	-87,362	0,120	0,027
-486,693	367,376	-0,090	-0,134
-485,678	767,152	0,039	-0,079
-484,664	800,000	0,045	-0,095
-483,649	-200,000	-0,024	-0,150
-482,635	-18,492	-0,047	0,021
-481,620	-16,597	-0,092	0,043
-480,605	205,927	0,070	0,081
-479,591	501,042	-0,093	0,159
-478,576	-124,507	-0,047	0,005
-477,562	7,006	-0,059	0,032
-476,547	218,678	0,031	-0,037
-475,532	136,156	0,075	-0,072
-474,518	-176,546	-0,055	-0,001
-473,503	127,745	0,065	0,061
-472,489	-200,000	-0,015	-0,135
-471,474	-81,798	0,036	0,009
-470,459	272,792	-0,030	0,039
-469,445	-200,000	0,001	0,177
-468,430	27,008	-0,060	0,037
-467,416	-59,271	0,129	-0,041
-466,401	6,171	-0,071	0,039
-465,386	-53,612	0,067	0,023
-464,372	23,781	-0,131	-0,079
-463,357	314,694	0,058	0,080
-462,343	-52,933	0,158	-0,053
-461,328	-38,030	0,021	-0,008
-460,313	-200,000	-0,031	0,115
-459,299	800,000	0,006	0,014
-458,284	121,889	0,039	0,036
-457,270	-62,760	-0,056	-0,017
-456,255	-200,000	0,033	-0,142
-455,241	94,856	0,062	-0,052
-454,226	142,879	0,039	-0,039
-453,211	651,697	-0,057	-0,108
-452,197	43,146	0,098	0,066
-451,182	57,050	-0,157	0,113
-450,168	-60,291	0,130	0,040
-449,153	-33,658	0,089	0,036
-448,138	-7,223	-0,041	-0,021
-447,124	13,399	0,056	-0,032
-446,109	297,858	0,044	-0,059
-445,095	732,838	-0,037	-0,074
-444,080	62,811	0,073	-0,054
-443,065	800,000	0,049	-0,107
-442,051	55,994	-0,152	0,108
-441,036	-200,000	-0,028	-0,137
-440,022	107,888	0,036	0,032
-439,007	-188,064	0,065	-0,001
-437,992	322,265	-0,032	-0,046
-436,978	207,855	0,066	-0,077
-435,963	223,229	-0,040	-0,048
-434,949	-200,000	-0,022	0,119
-433,934	768,619	-0,032	-0,064
-432,919	55,985	-0,102	0,073
-431,905	-63,841	-0,077	-0,023
-430,890	252,818	-0,053	0,066
-429,876	36,509	0,090	0,058
-428,861	-200,000	0,010	-0,075
-427,846	45,558	-0,082	0,056
-426,832	-31,423	-0,042	-0,017
-425,817	-29,199	0,062	0,026
-424,803	790,729	0,022	-0,044
-423,788	1,373	-0,076	-0,040
-422,773	-200,000	0,012	0,056
-421,759	-80,518	-0,100	-0,024
-420,744	260,537	0,047	-0,060
-419,730	-200,000	-0,016	0,060
-418,715	-184,995	-0,042	0,000
-417,701	209,337	-0,078	-0,090
-416,686	198,670	0,033	-0,037
-415,671	800,000	-0,053	0,167
-414,657	-200,000	0,006	0,049
-413,642	268,451	-0,012	-0,016
-412,628	398,149	-0,052	-0,081
-411,613	128,413	0,045	-0,042
-410,598	-161,701	-0,104	0,004
-409,584	51,774	-0,082	0,057
-408,569	446,044	-0,066	0,107
-407,555	437,254	-0,014	-0,022
-406,540	286,271	0,020	0,027
-405,525	325,156	-0,085	-0,120
-404,511	-60,435	-0,024	0,007
-403,496	-200,000	0,009	-0,044
-402,482	95,671	-0,063	-0,053
-401,467	42,626	-0,113	-0,076
-400,452	-54,581	-0,062	-0,020
-399,438	366,038	0,058	0,086
-398,423	-200,000	0,007	-0,076
-397,409	-153,337	-0,040	-0,002
-396,394	-200,000	-0,001	0,056
-395,379	-105,373	-0,017	0,003
-394,365	-105,803	0,060	0,010
-393,350	-200,000	0,017	-0,065
-392,336	-200,000	0,016	0,126
-391,321	593,958	0,023	-0,042
-390,306	70,511	-0,056	0,043
-389,292	-200,000	0,015	0,076
-388,277	-37,851	0,062	-0,024
-387,263	-75,240	0,157	0,041
-386,248	13,969	-0,049	0,028
-385,233	-200,000	0,012	-0,039
-384,219	-50,854	-0,039	0,014
-383,204	61,412	-0,150	0,109
-382,190	-6,909	-0,104	-0,052
-381,175	-200,000	-0,026	-0,090
-380,160	-200,000	-0,010	-0,034
-379,146	800,000	0,031	-0,100
-378,131	691,255	-0,039	0,075
-377,117	128,927	0,028	0,026
-376,102	-200,000	-0,003	0,049
-375,088	-56,578	0,056	-0,018
-374,073	-60,335	-0,077	-0,024
-373,058	-200,000	0,017	0,151
-372,044	323,417	-0,011	-0,016
-371,029	-116,197	0,145	-0,019
-370,015	390,794	-0,033	-0,050
-369,000	182,517	-0,068	0,073
-367,985	800,000	0,066	-0,185
-366,971	258,953	0,055	-0,070
-365,956	65,877	0,072	0,053
-364,942	122,222	0,101	0,092
-363,927	-151,094	-0,112	0,006
-362,912	800,000	0,112	-0,261
-361,898	-90,932	0,045	-0,009
-360,883	-169,155	-0,087	0,002
-359,869	800,000	-0,042	0,097
-358,854	126,132	0,011	-0,010
-357,839	236,411	0,041	0,050
-356,825	11,316	0,017	-0,010
-355,810	-117,938	0,060	0,008
-354,796	98,686	0,070	-0,059
-353,781	-9,421	0,026	0,012
-352,766	-135,412	-0,079	0,007
-351,752	-200,000	0,004	-0,037
-350,737	420,947	-0,077	0,121
-349,723	-79,396	0,172	0,042
-348,708	-57,028	0,026	0,008
-347,693	-14,876	-0,106	-0,050
-346,679	162,989	-0,096	-0,099
-345,664	-142,316	-0,108	-0,008
-344,650	-169,727	0,065	-0,002
-343,635	-41,440	0,107	-0,040
-342,620	-98,818	-0,086	-0,016
-341,606	35,869	0,132	0,085
-340,591	800,000	-0,018	-0,039
-339,577	-200,000	-0,001	-0,093
-338,562	-60,553	0,086	-0,027
-337,548	-42,313	-0,090	-0,033
-336,533	-134,145	0,037	-0,003
-335,518	51,858	0,035	0,024
-334,504	-126,106	0,031	0,003
-333,489	800,000	-0,032	-0,065
-332,475	-200,000	-0,004	-0,197
-331,460	115,769	0,065	-0,058
-330,445	-200,000	0,019	0,079
-329,431	-50,473	0,136	0,047
-328,416	191,700	0,051	-0,056
-327,402	75,197	-0,065	-0,050
-326,387	110,359	-0,066	0,058
-325,372	-200,000	-0,002	-0,081
-324,358	-55,218	-0,082	0,027
-323,343	800,000	-0,020	0,053
-322,329	318,611	-0,052	0,073
-321,314	106,144	0,069	-0,060
-320,299	14,063	-0,021	0,012
-319,285	626,748	-0,064	0,119
-318,270	469,089	-0,067	0,111
-317,256	-88,491	-0,143	-0,031
-316,241	194,573	0,042	0,046
-315,226	-112,290	0,055	-0,008
-314,212	-200,000	0,001	-0,024
-313,197	-200,000	0,005	0,097
-312,183	-90,951	-0,031	-0,006
-311,168	-32,629	-0,083	0,034
-310,153	-200,000	0,051	-0,180
-309,139	-200,000	-0,047	-0,159
-308,124	115,293	0,096	0,085
-307,110	469,039	0,058	0,095
-306,095	126,849	0,115	0,107
-305,080	-200,000	0,000	0,020
-304,066	800,000	0,046	0,114
-303,051	87,381	-0,099	-0,080
-302,037	-200,000	-0,028	-0,139
-301,022	-45,546	-0,095	0,034
-300,008	-54,201	-0,086	0,028
-298,993	72,592	0,131	0,100
-297,978	-13,015	0,044	-0,021
-296,964	45,923	0,075	-0,051
-295,949	-24,820	0,030	0,013
-294,935	228,747	-0,101	-0,121
-293,920	-25,294	0,031	0,014
-292,905	89,232	0,063	-0,051
-291,891	260,301	0,065	0,082
-290,876	-200,000	0,004	0,124
-289,862	218,116	-0,071	-0,083
-288,847	-200,000	-0,005	-0,046
-287,832	103,806	-0,089	0,077
-286,818	800,000	0,029	-0,083
-285,803	562,347	-0,078	0,139
-284,789	-16,881	-0,058	-0,027
-283,774	713,396	0,059	0,114
-282,759	-200,000	-0,010	0,055
-281,745	800,000	-0,030	0,077
-280,730	-200,000	0,017	-0,081
-279,716	-11,024	0,139	0,067
-278,701	105,182	0,153	0,132
-277,686	-200,000	-0,001	0,064
-276,672	144,142	0,123	0,120
-275,657	696,436	0,081	0,155
-274,643	-23,649	-0,030	-0,013
-273,628	46,248	0,053	0,036
-272,613	-16,092	-0,071	-0,033
-271,599	-200,000	0,001	0,047
-270,584	-90,791	0,045	0,009
-269,570	-50,733	0,124	0,042
-268,555	574,591	0,080	-0,142
-267,540	64,711	-0,042	0,031
-266,526	-102,477	0,079	0,014
-265,511	800,000	-0,041	-0,131
-264,497	-164,613	0,098	-0,003
-263,482	800,000	-0,028	-0,069
-262,467	800,000	0,007	0,019
-261,453	16,821	0,074	-0,042
-260,438	800,000	-0,059	0,123
-259,424	-35,403	0,048	0,019
-258,409	123,201	-0,147	-0,135
-257,395	800,000	0,067	0,149
-256,380	650,788	-0,015	-0,029
-255,365	-200,000	0,021	-0,094
-254,351	800,000	-0,014	0,030
-253,336	-136,424	0,191	-0,016
-252,322	31,144	-0,100	-0,062
-251,307	221,574	0,008	-0,009
-250,292	748,328	0,060	0,118
-249,278	240,567	-0,088	0,108
-248,263	397,323	-0,073	-0,111
-247,249	-94,495	0,084	0,017
-246,234	395,240	-0,017	-0,026
-245,219	-143,055	0,102	0,007
-244,205	-117,045	0,130	0,017
-243,190	800,000	0,036	-0,109
-242,176	262,684	-0,008	0,010
-241,161	800,000	0,153	0,324
-240,146	800,000	0,043	0,100
-239,132	176,095	-0,033	-0,035
-238,117	-101,807	-0,164	0,029
-237,103	-200,000	0,022	-0,144
-236,088	103,611	0,054	-0,046
-235,073	-90,426	-0,052	-0,011
-234,059	242,892	0,127	-0,156
-233,044	-78,554	-0,178	-0,044
-232,030	-200,000	-0,013	0,044
-231,015	279,190	0,052	-0,069
-230,000	-136,752	0,115	-0,010
-228,986	-200,000	0,056	-0,000
-227,971	-200,000	0,014	0,086
-226,957	340,487	0,042	0,060
-225,942	-99,189	0,116	0,021
-224,927	-200,000	-0,017	-0,159
-223,913	800,000	-0,069	-0,176
-222,898	76,963	-0,068	-0,052
-221,884	-136,284	-0,075	-0,006
-220,869	-90,022	0,111	0,023
-219,855	72,072	0,075	-0,057
-218,840	468,209	-0,016	-0,026
-217,825	730,514	0,042	0,082
-216,811	-45,413	-0,078	-0,028
-215,796	-73,021	0,067	-0,018
-214,782	-200,000	0,009	-0,067
-213,767	525,506	0,050	0,087
-212,752	76,469	-0,053	-0,041
-211,738	-200,000	0,003	-0,019
-210,723	122,241	0,082	0,075
-209,709	531,404	-0,072	-0,124
-208,694	551,536	-0,057	-0,101
-207,679	-180,300	-0,135	-0,002
-206,665	16,672	0,091	-0,052
-205,650	-155,463	0,120	0,006
-204,636	-200,000	-0,020	0,083
-203,621	216,725	0,062	0,073
-202,606	269,511	0,017	0,022
-201,592	24,244	-0,046	0,028
-200,577	117,504	0,040	-0,036
-199,563	-200,000	-0,005	-0,064
-198,548	-36,239	0,117	0,046
-197,533	-137,147	0,092	-0,008
-196,519	405,582	-0,044	-0,068
-195,504	-200,000	0,007	0,166
-194,490	-145,391	-0,106	-0,007
-193,475	-200,000	0,001	-0,009
-192,460	14,449	0,123	0,070
-191,446	-161,370	-0,113	-0,004
-190,431	492,808	0,108	0,181
-189,417	-200,000	0,013	0,068
-188,402	800,000	-0,022	-0,051
-187,387	-168,443	-0,033	0,001
-186,373	-64,503	-0,170	0,050
-185,358	19,878	0,069	0,040
-184,344	800,000	-0,030	0,066
-183,329	259,435	0,067	-0,085
-182,315	-67,881	0,125	-0,035
-181,300	-61,512	0,072	0,022
-180,285	-200,000	0,002	-0,080
-179,271	-45,333	-0,161	-0,058
-178,256	-200,000	0,004	0,041
-177,242	-200,000	0,003	-0,065
-176,227	-176,345	-0,044	0,001
-175,212	475,855	0,045	0,074
-174,198	276,155	-0,081	-0,105
-173,183	-110,409	0,085	0,013
-172,169	80,663	-0,100	-0,079
-171,154	360,110	0,042	-0,062
-170,139	40,950	0,215	-0,141
-169,125	264,336	-0,016	0,020
-168,110	41,933	0,058	0,038
-167,096	-200,000	0,021	0,083
-166,081	-53,463	-0,139	-0,046
-165,066	124,708	0,092	-0,085
-164,052	-11,029	-0,134	-0,064
-163,037	-200,000	0,026	0,090
-162,023	-200,000	0,021	0,086
-161,008	-17,535	0,062	-0,028
-159,993	76,122	0,094	-0,072
-158,979	-153,476	0,032	-0,002
-157,964	2,554	-0,099	-0,052
-156,950	602,043	0,035	-0,064
-155,935	-26,350	-0,048	0,021
-154,920	45,998	-0,089	0,060
-153,906	-200,000	-0,013	-0,047
-152,891	800,000	-0,025	0,062
-151,877	67,305	-0,132	0,098
-150,862	139,016	-0,060	0,058
-149,847	-58,913	0,128	0,040
-148,833	-200,000	-0,026	-0,094
-147,818	-200,000	-0,007	-0,057
-146,804	-67,753	-0,133	0,038
-145,789	78,330	-0,153	0,119
-144,775	297,861	-0,103	0,139
-143,760	77,480	-0,067	0,052
-142,745	246,196	-0,072	-0,089
-141,731	177,026	0,104	0,110
-140,716	-82,902	0,054	0,012
-139,702	-77,501	0,068	-0,017
-138,687	-12,646	0,043	0,020
-137,672	-200,000	0,010	-0,091
-136,658	-99,838	-0,202	0,036
-135,643	-40,675	0,148	0,055
-134,629	-200,000	0,028	0,122
-133,614	-99,754	0,112	0,020
-132,599	-156,325	0,108	-0,005
-131,585	800,000	-0,023	0,057
-130,570	115,718	-0,094	-0,083
-129,556	800,000	-0,019	0,047
-128,541	800,000	-0,036	0,094
-127,526	489,306	-0,043	-0,071
-126,512	-200,000	0,026	0,085
-125,497	-135,203	0,033	-0,003
-124,483	232,060	0,023	0,028
-123,468	-111,218	-0,088	0,013
-122,453	-56,902	0,017	-0,006
-121,439	-48,975	0,032	0,011
-120,424	502,703	-0,055	0,093
-119,410	115,412	0,071	0,063
-118,395	-200,000	-0,000	0,066
