DTS Sentinel unit serial number:	SN410029Multiplexer serial number:	ORYXHardware model number:	OX2-SRSoftware version number:	ORYX F/W v4,00 Oryx Data Collector v3.7.2.0data status	okinstallation	B6 Nyhavnadifferential loss correction	single-endedforward channel	channel 2reverse channel	N/Adate	2023/12/10time	19:50:08forward acquisition time	300,00reverse acquisition time	0,00gamma	499,1914k internal	0,3123k external	0,3123temperature offset calibration	1,0000default loss term (dB/km)	0,3820temperature slope calibration	1,0000multiplexer offset coefficient	1,0000multiplexer slope coefficient	1,0000fibre end	0,00T internal ref (°C)	22,31T ext. ref 1 (°C)	5,97T ext. ref 2 (°C)	6,00length (m)	temperature (°C)	Stokes	anti-Stokes-744,400	-200,000	-0,004	-0,039
-743,385	-179,220	-0,169	-0,003
-742,371	800,000	-0,031	-0,085
-741,356	467,402	-0,137	0,231
-740,342	-10,576	0,109	-0,054
-739,327	-124,928	-0,231	0,026
-738,312	480,078	0,075	-0,127
-737,298	-78,281	-0,198	0,050
-736,283	-136,693	-0,052	0,004
-735,269	96,825	-0,221	0,188
-734,254	-12,435	0,111	-0,054
-733,239	-99,105	-0,366	-0,068
-732,225	17,900	0,082	0,048
-731,210	613,712	0,037	-0,070
-730,196	-27,412	-0,064	0,028
-729,181	-14,350	-0,165	0,079
-728,167	25,889	0,068	-0,042
-727,152	467,056	0,045	0,076
-726,137	-127,855	-0,101	0,011
-725,123	666,177	-0,053	-0,103
-724,108	-200,000	0,015	-0,053
-723,094	-77,139	-0,157	-0,041
-722,079	598,318	-0,080	0,148
-721,064	-72,728	0,177	-0,048
-720,050	42,151	0,014	0,009
-719,035	-7,234	-0,115	0,058
-718,021	604,715	-0,062	-0,116
-717,006	-200,000	-0,021	-0,096
-715,991	48,892	-0,146	-0,102
-714,977	379,363	0,038	-0,058
-713,962	-42,073	0,045	-0,017
-712,948	305,715	-0,087	-0,121
-711,933	800,000	0,027	0,066
-710,918	-56,131	-0,090	0,030
-709,904	-93,799	-0,132	0,027
-708,889	637,321	-0,053	-0,100
-707,875	-200,000	-0,006	0,039
-706,860	-9,462	0,053	-0,026
-705,845	355,924	0,043	-0,064
-704,831	-64,756	-0,089	0,027
-703,816	-200,000	0,015	-0,125
-702,802	-200,000	-0,002	-0,042
-701,787	-200,000	0,010	-0,155
-700,772	179,702	0,015	-0,017
-699,758	-200,000	0,020	-0,100
-698,743	-200,000	-0,007	0,051
-697,729	-200,000	-0,015	-0,086
-696,714	627,502	-0,062	0,117
-695,699	-49,063	-0,182	-0,064
-694,685	-63,537	-0,111	0,034
-693,670	107,623	-0,084	0,075
-692,656	-21,187	0,084	0,038
-691,641	124,500	-0,062	0,058
-690,627	-200,000	0,006	-0,080
-689,612	800,000	0,030	0,071
-688,597	80,091	0,092	0,074
-687,583	56,599	-0,150	0,109
-686,568	47,660	-0,041	0,028
-685,554	194,246	0,047	0,053
-684,539	-200,000	0,000	-0,018
-683,524	23,415	0,105	-0,064
-682,510	-43,341	-0,066	-0,025
-681,495	-79,329	0,060	0,015
-680,481	800,000	0,012	0,033
-679,466	121,069	-0,130	0,120
-678,451	-138,385	0,120	0,010
-677,437	-97,075	0,060	-0,012
-676,422	800,000	-0,012	-0,034
-675,408	28,098	-0,022	-0,013
-674,393	184,685	-0,035	0,038
-673,378	163,815	0,060	-0,063
-672,364	-164,168	-0,038	0,001
-671,349	171,363	-0,040	-0,043
-670,335	-97,405	0,146	0,028
-669,320	800,000	0,058	0,152
-668,305	-4,355	-0,121	0,062
-667,291	800,000	-0,042	-0,105
-666,276	416,143	-0,023	0,037
-665,262	-107,030	-0,048	0,008
-664,247	685,109	-0,012	-0,024
-663,232	-41,176	0,073	0,028
-662,218	-122,803	-0,074	-0,009
-661,203	133,723	-0,055	0,053
-660,189	-200,000	0,019	0,076
-659,174	-200,000	0,002	-0,054
-658,159	98,742	-0,071	-0,061
-657,145	-200,000	-0,014	0,058
-656,130	800,000	0,032	-0,074
-655,116	461,718	-0,043	0,071
-654,101	389,061	0,041	-0,063
-653,086	-200,000	-0,028	0,095
-652,072	-200,000	-0,016	-0,122
-651,057	-200,000	-0,008	-0,056
-650,043	328,059	-0,075	-0,108
-649,028	-76,715	0,051	0,013
-648,014	252,142	0,074	0,094
-646,999	304,053	0,016	0,022
-645,984	490,052	-0,058	0,098
-644,970	-113,131	0,052	-0,008
-643,955	-200,000	0,002	0,097
-642,941	-200,000	0,006	0,030
-641,926	800,000	0,013	-0,034
-640,911	-135,920	0,169	-0,015
-639,897	-145,878	0,085	-0,006
-638,882	68,128	0,052	0,039
-637,868	-133,743	0,053	0,005
-636,853	249,053	-0,074	-0,093
-635,838	518,494	-0,029	-0,051
-634,824	19,647	0,058	-0,035
-633,809	407,261	0,096	-0,151
-632,795	800,000	-0,013	0,038
-631,780	18,579	-0,019	-0,011
-630,765	-200,000	0,003	-0,013
-629,751	-133,688	-0,119	0,011
-628,736	193,349	0,079	0,089
-627,722	712,105	0,041	-0,080
-626,707	800,000	0,020	-0,042
-625,692	-47,549	0,082	0,030
-624,678	-79,638	-0,084	0,021
-623,663	-200,000	-0,006	0,078
-622,649	246,415	-0,085	-0,107
-621,634	-200,000	-0,015	0,071
-620,619	-9,234	-0,152	0,075
-619,605	110,826	0,132	0,118
-618,590	86,244	-0,086	0,070
-617,576	52,488	-0,054	0,038
-616,561	800,000	-0,020	0,057
-615,546	-200,000	0,001	0,020
-614,532	-200,000	0,002	0,130
-613,517	800,000	0,027	-0,076
-612,503	800,000	-0,062	-0,160
-611,488	92,926	-0,071	0,059
-610,474	530,759	0,041	-0,071
-609,459	-18,823	-0,124	-0,057
-608,444	-200,000	-0,028	-0,098
-607,430	33,282	-0,175	-0,112
-606,415	-200,000	-0,003	-0,083
-605,401	-200,000	-0,003	-0,013
-604,386	800,000	0,003	0,006
-603,371	800,000	-0,029	-0,066
-602,357	63,766	-0,090	0,067
-601,342	255,791	-0,123	-0,157
-600,328	-118,823	-0,079	-0,010
-599,313	-80,624	0,051	0,012
-598,298	772,118	-0,025	0,051
-597,284	-200,000	0,032	0,153
-596,269	-56,195	-0,080	0,026
-595,255	29,989	0,126	0,079
-594,240	-66,348	-0,110	0,032
-593,225	800,000	-0,015	0,045
-592,211	-200,000	-0,026	-0,188
-591,196	520,618	0,059	0,104
-590,182	16,855	0,006	-0,003
-589,167	-87,334	-0,074	0,017
-588,152	270,370	-0,082	0,108
-587,138	800,000	0,032	0,086
-586,123	650,930	0,027	-0,051
-585,109	101,600	-0,105	-0,090
-584,094	-72,274	-0,168	-0,046
-583,079	246,139	0,127	0,159
-582,065	800,000	-0,022	-0,052
-581,050	-200,000	-0,008	0,038
-580,036	-146,598	-0,138	-0,009
-579,021	-7,759	-0,075	-0,037
-578,006	135,812	-0,119	-0,115
-576,992	54,889	-0,036	-0,026
-575,977	-119,020	0,110	0,014
-574,963	121,248	0,098	0,091
-573,948	-48,097	-0,047	-0,017
-572,934	-164,293	-0,125	0,004
-571,919	-200,000	-0,003	0,011
-570,904	800,000	0,015	-0,035
-569,890	406,841	0,075	0,118
-568,875	-200,000	0,028	0,181
-567,861	-153,287	-0,078	-0,004
-566,846	-89,284	-0,182	0,039
-565,831	275,915	-0,023	-0,030
-564,817	31,529	0,060	0,038
-563,802	-20,903	0,092	-0,041
-562,788	151,608	-0,103	-0,104
-561,773	283,474	0,068	-0,090
-560,758	800,000	0,055	-0,126
-559,744	649,793	-0,010	0,019
-558,729	119,079	0,060	0,055
-557,715	-78,942	0,082	-0,020
-556,700	123,059	-0,089	-0,083
-555,685	-200,000	0,004	0,062
-554,671	260,648	-0,035	0,045
-553,656	800,000	0,062	0,149
-552,642	243,234	0,054	0,067
-551,627	-35,309	-0,134	-0,054
-550,612	47,572	-0,055	-0,038
-549,598	170,300	0,053	-0,056
-548,583	33,831	-0,082	0,053
-547,569	125,526	0,130	0,121
-546,554	-200,000	0,014	0,096
-545,539	91,248	0,033	0,028
-544,525	-53,312	0,052	0,018
-543,510	-106,341	-0,051	-0,008
-542,496	155,002	-0,053	-0,054
-541,481	-200,000	-0,016	-0,071
-540,466	-200,000	-0,009	0,084
-539,452	-200,000	0,012	0,062
-538,437	75,463	-0,019	0,015
-537,423	-52,334	-0,109	0,037
-536,408	-129,141	0,145	0,015
-535,393	-72,376	-0,091	0,025
-534,379	800,000	-0,056	-0,122
-533,364	-200,000	0,040	-0,171
-532,350	-146,264	0,136	0,009
-531,335	-57,706	0,168	-0,054
-530,321	784,183	-0,023	0,047
-529,306	-200,000	-0,004	-0,056
-528,291	-200,000	0,018	-0,109
-527,277	800,000	-0,022	0,048
-526,262	24,722	-0,105	0,064
-525,248	57,141	-0,062	0,045
-524,233	791,433	-0,025	0,050
-523,218	4,756	0,144	0,078
-522,204	-142,084	-0,067	0,005
-521,189	767,451	-0,039	0,078
-520,175	233,485	-0,032	0,039
-519,160	627,137	-0,113	-0,211
-518,145	-200,000	-0,004	-0,158
-517,131	-117,444	-0,061	0,008
-516,116	-6,923	0,186	-0,093
-515,102	800,000	0,028	0,092
-514,087	-200,000	0,001	-0,019
-513,072	800,000	0,012	0,025
-512,058	800,000	-0,045	-0,108
-511,043	-200,000	-0,027	0,175
-510,029	-200,000	-0,002	0,025
-509,014	247,512	0,047	0,059
-507,999	-200,000	0,030	-0,100
-506,985	31,746	0,090	-0,057
-505,970	-34,021	-0,037	-0,015
-504,956	-143,615	-0,105	0,007
-503,941	-1,447	0,056	-0,029
-502,926	59,660	0,162	0,118
-501,912	118,716	0,062	0,057
-500,897	-116,889	-0,013	0,002
-499,883	800,000	0,072	-0,206
-498,868	106,873	-0,111	0,098
-497,853	800,000	0,056	-0,148
-496,839	40,520	0,061	0,041
-495,824	47,591	0,072	-0,050
-494,810	108,825	-0,076	0,067
-493,795	273,060	0,078	0,102
-492,781	-200,000	-0,014	0,071
-491,766	267,043	0,033	-0,042
-490,751	800,000	0,034	0,074
-489,737	373,356	-0,018	-0,028
-488,722	47,118	0,212	-0,145
-487,708	252,031	0,011	-0,014
-486,693	-116,093	-0,026	0,003
-485,678	120,661	0,080	-0,073
-484,664	273,882	0,071	-0,093
-483,649	8,758	-0,116	-0,064
-482,635	-16,425	0,075	-0,035
-481,620	800,000	-0,015	0,033
-480,605	522,160	0,005	-0,009
-479,591	-200,000	-0,008	0,205
-478,576	-9,622	0,102	-0,050
-477,562	63,489	-0,038	0,028
-476,547	524,398	-0,072	-0,125
-475,532	800,000	-0,043	-0,104
-474,518	-60,917	0,163	-0,051
-473,503	-200,000	-0,028	-0,121
-472,489	800,000	0,050	-0,159
-471,474	-32,295	0,099	0,041
-470,459	197,263	-0,064	-0,072
-469,445	652,786	0,045	-0,085
-468,430	-52,307	-0,148	-0,050
-467,416	-49,387	0,130	0,045
-466,401	278,451	0,037	-0,049
-465,386	-16,757	0,138	0,064
-464,372	147,822	0,132	0,131
-463,357	-66,736	-0,035	0,010
-462,343	201,736	0,050	-0,057
-461,328	-200,000	0,005	-0,069
-460,313	0,223	-0,045	-0,024
-459,299	-93,197	-0,074	0,015
-458,284	9,978	0,033	-0,018
-457,270	-200,000	-0,034	-0,114
-456,255	-200,000	0,006	-0,098
-455,241	89,194	-0,047	-0,039
-454,226	-177,647	0,106	0,002
-453,211	-80,362	0,041	0,010
-452,197	325,079	-0,057	0,081
-451,182	-9,873	-0,023	-0,011
-450,168	-118,316	0,097	0,013
-449,153	204,109	-0,017	0,019
-448,138	800,000	-0,093	-0,213
-447,124	84,712	-0,084	-0,068
-446,109	247,346	0,036	-0,045
-445,095	264,570	-0,030	-0,038
-444,080	283,531	0,043	-0,057
-443,065	238,138	-0,023	0,028
-442,051	-200,000	-0,007	-0,031
-441,036	-200,000	0,029	0,155
-440,022	-130,831	-0,071	0,007
-439,007	-87,704	0,054	-0,012
-437,992	-200,000	0,021	-0,162
-436,978	800,000	0,022	-0,053
-435,963	215,352	-0,042	0,049
-434,949	-87,823	-0,047	0,010
-433,934	67,302	-0,098	-0,074
-432,919	520,025	-0,063	-0,110
-431,905	75,166	-0,003	0,002
-430,890	26,295	-0,113	0,069
-429,876	589,959	0,052	0,095
-428,861	-88,867	0,104	0,023
-427,846	-200,000	0,005	0,050
-426,832	198,259	-0,069	-0,078
-425,817	-200,000	0,003	0,048
-424,803	-200,000	-0,005	-0,138
-423,788	-200,000	-0,011	0,148
-422,773	212,171	-0,071	0,083
-421,759	-200,000	0,005	0,093
-420,744	-200,000	0,041	-0,132
-419,730	-48,789	-0,074	0,026
-418,715	-172,576	-0,249	-0,006
-417,701	-104,846	0,099	0,017
-416,686	78,321	0,062	-0,049
-415,671	263,172	0,054	-0,069
-414,657	737,877	-0,081	0,161
-413,642	30,486	-0,130	0,082
-412,628	-156,151	0,084	-0,004
-411,613	-200,000	0,012	0,054
-410,598	66,928	0,065	-0,049
-409,584	-199,856	-0,087	-0,000
-408,569	17,040	0,075	0,044
-407,555	626,641	0,074	0,138
-406,540	-65,257	0,022	-0,006
-405,525	800,000	-0,042	0,096
-404,511	800,000	-0,064	-0,142
-403,496	780,856	0,046	-0,094
-402,482	56,531	0,026	0,019
-401,467	-177,902	-0,018	-0,000
-400,452	8,104	0,007	0,004
-399,438	800,000	0,017	-0,043
-398,423	-200,000	0,004	-0,064
-397,409	-63,613	-0,038	-0,012
-396,394	-200,000	-0,024	-0,179
-395,379	-161,327	0,222	-0,008
-394,365	-13,494	-0,030	0,014
-393,350	1,666	0,115	0,061
-392,336	578,654	0,044	-0,080
-391,321	-200,000	0,008	-0,073
-390,306	-200,000	-0,001	0,010
-389,292	145,454	0,092	-0,091
-388,277	800,000	0,025	0,057
-387,263	610,551	0,048	0,089
-386,248	528,020	-0,036	0,062
-385,233	253,200	-0,095	0,119
-384,219	-5,125	-0,121	-0,061
-383,204	641,053	0,022	0,041
-382,190	-200,000	-0,022	-0,175
-381,175	-24,533	0,072	-0,031
-380,160	100,137	0,039	-0,033
-379,146	45,001	0,060	0,041
-378,131	-200,000	0,015	0,107
-377,117	-200,000	-0,015	0,052
-376,102	-143,193	-0,058	-0,004
-375,088	445,341	-0,052	-0,084
-374,073	-49,147	0,077	0,027
-373,058	-5,770	0,181	-0,091
-372,044	-46,222	-0,072	-0,026
-371,029	311,617	-0,032	0,044
-370,015	-200,000	-0,001	-0,005
-369,000	240,932	-0,095	-0,117
-367,985	116,130	-0,100	-0,090
-366,971	-18,905	0,080	0,037
-365,956	-107,079	-0,076	-0,012
-364,942	-27,297	-0,012	-0,005
-363,927	-200,000	0,025	0,085
-362,912	12,559	0,100	-0,057
-361,898	-92,004	-0,084	0,017
-360,883	197,831	0,014	-0,016
-359,869	800,000	0,035	-0,111
-358,854	-200,000	0,002	0,018
-357,839	-15,617	-0,065	0,030
-356,825	224,953	0,063	-0,075
-355,810	633,892	-0,020	0,038
-354,796	-76,507	-0,169	-0,043
-353,781	466,300	0,032	0,053
-352,766	800,000	0,023	0,060
-351,752	181,183	-0,020	-0,021
-350,737	181,551	0,067	0,073
-349,723	-200,000	0,273	0,001
-348,708	-23,749	-0,030	0,013
-347,693	-84,318	-0,045	0,010
-346,679	168,815	-0,076	-0,079
-345,664	53,075	-0,061	-0,042
-344,650	-200,000	0,003	-0,052
-343,635	5,675	0,108	0,058
-342,620	800,000	-0,018	-0,057
-341,606	74,093	-0,035	0,027
-340,591	-14,409	-0,110	-0,052
-339,577	-128,163	-0,149	0,015
-338,562	8,431	0,066	-0,036
-337,548	-13,724	-0,090	0,043
-336,533	-200,000	-0,010	-0,054
-335,518	-44,037	0,073	-0,027
-334,504	223,068	-0,047	0,056
-333,489	682,584	0,041	-0,078
-332,475	-49,056	-0,171	-0,060
-331,460	-200,000	0,000	0,060
-330,445	-48,176	0,028	0,010
-329,431	-119,631	0,070	-0,009
-328,416	-200,000	0,012	0,064
-327,402	-102,857	0,046	-0,008
-326,387	-200,000	0,007	0,103
-325,372	219,701	-0,077	0,090
-324,358	-122,044	0,066	-0,008
-323,343	85,394	0,035	0,028
-322,329	98,342	-0,018	0,015
-321,314	-200,000	-0,040	0,298
-320,299	-91,918	-0,149	0,031
-319,285	154,913	-0,014	0,014
-318,270	266,327	0,026	0,033
-317,256	155,441	-0,062	-0,062
-316,241	119,747	-0,130	0,119
-315,226	800,000	0,039	0,108
-314,212	-39,855	0,071	0,027
-313,197	710,152	0,058	-0,112
-312,183	-200,000	-0,007	0,114
-311,168	241,526	0,008	0,009
-310,153	36,751	-0,072	-0,046
-309,139	255,712	-0,065	-0,082
-308,124	71,667	0,096	0,073
-307,110	242,579	0,071	0,088
-306,095	-200,000	0,008	0,076
-305,080	-72,136	-0,075	-0,020
-304,066	11,330	0,031	0,017
-303,051	461,915	0,084	-0,137
-302,037	299,796	0,077	-0,104
-301,022	-144,556	0,049	-0,003
-300,008	115,622	0,031	-0,028
-298,993	-21,054	0,069	0,031
-297,978	64,648	-0,052	0,038
-296,964	800,000	-0,032	-0,080
-295,949	-26,817	0,009	-0,004
-294,935	12,793	-0,076	0,043
-293,920	500,747	-0,051	0,086
-292,905	182,371	0,023	0,025
-291,891	-200,000	-0,049	0,160
-290,876	46,805	0,071	0,048
-289,862	-200,000	-0,002	0,115
-288,847	284,305	-0,046	-0,061
-287,832	208,508	-0,110	-0,127
-286,818	-21,073	0,086	0,038
-285,803	8,488	-0,077	0,042
-284,789	176,072	0,096	-0,102
-283,774	130,924	0,049	0,046
-282,759	800,000	0,007	-0,014
-281,745	-4,389	-0,050	-0,025
-280,730	-200,000	-0,017	0,161
-279,716	-200,000	0,004	0,014
-278,701	-200,000	0,006	-0,076
-277,686	-108,281	0,101	-0,016
-276,672	-200,000	-0,001	0,085
-275,657	-61,594	0,074	-0,023
-274,643	19,466	-0,040	-0,023
-273,628	92,636	-0,016	-0,014
-272,613	65,921	-0,059	0,044
-271,599	-90,618	-0,029	-0,006
-270,584	-200,000	-0,011	0,046
-269,570	662,143	0,040	0,076
-268,555	-200,000	-0,005	0,125
-267,540	12,825	-0,064	-0,036
-266,526	82,901	0,162	0,129
-265,511	67,218	0,036	0,027
-264,497	-200,000	-0,008	0,076
-263,482	-200,000	-0,000	0,045
-262,467	-200,000	0,004	-0,088
-261,453	-200,000	0,038	0,139
-260,438	-92,916	-0,035	-0,007
-259,424	-61,509	-0,165	0,050
-258,409	492,844	-0,069	-0,117
-257,395	42,933	-0,104	0,069
-256,380	-125,102	0,233	-0,026
-255,365	332,890	-0,033	0,046
-254,351	-18,561	0,064	-0,029
-253,336	-200,000	0,018	-0,101
-252,322	-200,000	-0,021	-0,111
-251,307	-200,000	-0,002	-0,157
-250,292	800,000	0,057	-0,119
-249,278	230,946	0,100	-0,120
-248,263	-50,621	-0,180	-0,062
-247,249	271,536	0,042	0,055
-246,234	-85,434	0,082	-0,019
-245,219	78,706	-0,070	-0,055
-244,205	520,272	0,024	0,042
-243,190	-200,000	-0,016	0,108
-242,176	722,906	-0,020	0,040
-241,161	800,000	0,042	0,097
-240,146	-70,685	-0,144	0,039
-239,132	501,837	-0,039	-0,065
-238,117	800,000	0,050	-0,153
-237,103	800,000	-0,034	-0,087
-236,088	-200,000	0,006	0,100
-235,073	-7,257	0,117	-0,058
-234,059	257,862	0,017	0,021
-233,044	-200,000	0,007	-0,044
-232,030	141,353	0,076	0,074
-231,015	-128,191	0,075	-0,008
-230,000	-200,000	0,015	0,126
-228,986	40,932	-0,055	0,036
-227,971	58,693	0,042	-0,030
-226,957	-92,183	-0,096	-0,020
-225,942	149,243	0,049	0,048
-224,927	146,646	-0,081	0,080
-223,913	202,152	0,113	-0,128
-222,898	-200,000	-0,007	-0,043
-221,884	-200,000	-0,029	0,115
-220,869	800,000	0,058	0,172
-219,855	77,702	0,000	0,000
-218,840	-25,917	0,116	0,050
-217,825	-107,893	-0,225	-0,035
-216,811	-170,246	-0,042	-0,001
-215,796	176,532	0,012	0,013
-214,782	70,462	0,088	0,066
-213,767	513,206	0,028	-0,047
-212,752	-0,993	0,071	0,036
-211,738	-200,000	-0,014	0,115
-210,723	78,359	-0,040	-0,031
-209,709	-200,000	0,008	-0,141
-208,694	403,103	0,049	-0,076
-207,679	-200,000	0,018	-0,072
-206,665	-200,000	-0,013	0,082
-205,650	-200,000	0,035	0,138
-204,636	176,760	0,056	0,060
-203,621	-200,000	0,001	0,040
-202,606	-29,015	-0,132	-0,055
-201,592	-200,000	-0,000	-0,101
-200,577	-200,000	-0,025	-0,129
-199,563	-200,000	0,020	0,135
-198,548	480,906	-0,065	0,109
-197,533	13,272	0,068	0,039
-196,519	-77,821	-0,015	-0,004
-195,504	-111,836	-0,038	-0,006
-194,490	-200,000	0,028	-0,177
-193,475	800,000	-0,038	0,080
-192,460	77,851	0,103	-0,080
-191,446	-33,183	0,087	0,035
-190,431	287,513	0,085	0,112
-189,417	464,180	-0,021	0,035
-188,402	5,222	-0,075	-0,040
-187,387	-200,000	-0,006	-0,109
-186,373	150,694	0,048	-0,048
-185,358	235,207	0,033	0,039
-184,344	-200,000	-0,014	-0,082
-183,329	-200,000	0,010	0,058
-182,315	-200,000	-0,004	-0,021
-181,300	-200,000	0,003	-0,044
-180,285	-23,069	-0,121	-0,053
-179,271	49,195	-0,061	-0,041
-178,256	-200,000	-0,004	0,042
-177,242	-200,000	0,015	0,049
-176,227	90,877	-0,066	-0,054
-175,212	209,167	-0,068	0,077
-174,198	-91,256	0,050	0,010
-173,183	-200,000	0,004	0,045
-172,169	675,256	0,089	-0,170
-171,154	-90,402	0,079	0,016
-170,139	800,000	0,010	0,030
-169,125	-200,000	0,025	0,098
-168,110	433,526	0,032	-0,051
-167,096	800,000	-0,061	0,156
-166,081	-130,985	-0,090	-0,009
-165,066	655,803	-0,054	-0,101
-164,052	-134,412	0,093	-0,008
-163,037	800,000	-0,045	0,098
-162,023	386,801	-0,041	0,061
-161,008	-200,000	-0,001	0,077
-159,993	-130,932	0,098	0,009
-158,979	709,080	-0,046	-0,090
-157,964	-100,285	-0,045	0,008
-156,950	-200,000	0,007	-0,038
-155,935	195,813	-0,039	-0,043
-154,920	-200,000	-0,012	-0,115
-153,906	-200,000	0,010	0,075
-152,891	-200,000	-0,003	0,013
-151,877	251,541	-0,080	-0,099
-150,862	164,129	-0,115	-0,118
-149,847	195,336	0,081	-0,090
-148,833	-64,223	-0,158	-0,047
-147,818	92,544	-0,139	0,114
-146,804	-106,714	-0,023	0,004
-145,789	-200,000	0,021	0,211
-144,775	-200,000	0,032	0,172
-143,760	-129,098	0,052	0,005
-142,745	-133,955	-0,080	0,007
-141,731	-153,118	-0,077	-0,004
-140,716	-58,299	-0,071	-0,022
-139,702	-200,000	-0,035	0,135
-138,687	-200,000	0,003	0,060
-137,672	-19,553	0,091	0,041
-136,658	0,410	-0,123	0,064
-135,643	23,178	-0,065	-0,039
-134,629	134,661	0,049	0,046
-133,614	-200,000	0,020	-0,101
-132,599	103,512	0,160	0,137
-131,585	467,797	-0,078	0,128
-130,570	-36,012	-0,091	-0,036
-129,556	-26,006	-0,005	0,002
-128,541	-200,000	0,010	-0,039
-127,526	-130,915	0,135	-0,013
-126,512	-9,615	-0,088	-0,042
-125,497	-125,116	0,108	0,012
-124,483	298,845	-0,015	0,021
-123,468	-174,465	-0,095	-0,002
-122,453	-200,000	-0,022	-0,193
-121,439	-200,000	-0,022	-0,131
-120,424	-200,000	-0,003	0,032
-119,410	-75,501	0,054	-0,014
