DTS Sentinel unit serial number:	SN410029Multiplexer serial number:	ORYXHardware model number:	OX2-SRSoftware version number:	ORYX F/W v4,00 Oryx Data Collector v3.7.2.0data status	okinstallation	B6 Nyhavnadifferential loss correction	single-endedforward channel	channel 2reverse channel	N/Adate	2023/12/10time	09:30:08forward acquisition time	300,00reverse acquisition time	0,00gamma	499,1914k internal	0,3123k external	0,3123temperature offset calibration	1,0000default loss term (dB/km)	0,3820temperature slope calibration	1,0000multiplexer offset coefficient	1,0000multiplexer slope coefficient	1,0000fibre end	0,00T internal ref (°C)	22,55T ext. ref 1 (°C)	6,31T ext. ref 2 (°C)	6,32length (m)	temperature (°C)	Stokes	anti-Stokes-744,400	12,125	0,063	-0,036
-743,385	54,146	-0,191	0,137
-742,371	-136,681	0,067	0,006
-741,356	526,988	-0,098	0,172
-740,342	204,858	-0,083	0,096
-739,327	668,094	-0,093	0,179
-738,312	119,592	0,044	0,041
-737,298	-2,980	-0,125	0,065
-736,283	69,189	0,084	-0,064
-735,269	150,676	-0,080	0,082
-734,254	-6,177	0,102	-0,052
-733,239	-98,451	-0,417	-0,079
-732,225	-188,443	0,123	0,001
-731,210	111,515	-0,042	-0,038
-730,196	-73,777	-0,097	-0,026
-729,181	-11,819	-0,117	-0,057
-728,167	24,379	0,047	-0,029
-727,152	-35,819	-0,080	-0,032
-726,137	-12,742	0,090	0,043
-725,123	251,679	-0,024	0,030
-724,108	273,838	-0,040	-0,052
-723,094	-175,623	-0,029	0,001
-722,079	29,141	0,043	0,027
-721,064	-200,000	-0,013	-0,148
-720,050	800,000	-0,072	-0,148
-719,035	-132,980	0,064	0,006
-718,021	-57,888	-0,100	-0,032
-717,006	-61,650	-0,098	-0,030
-715,991	197,077	-0,088	-0,100
-714,977	-200,000	0,046	-0,152
-713,962	800,000	-0,045	-0,118
-712,948	779,379	-0,013	0,026
-711,933	10,207	-0,126	0,071
-710,918	-200,000	0,010	-0,098
-709,904	-200,000	0,025	-0,143
-708,889	800,000	0,037	-0,099
-707,875	781,466	0,064	-0,131
-706,860	9,158	0,080	0,045
-705,845	-106,369	0,055	-0,009
-704,831	123,951	-0,032	0,030
-703,816	800,000	-0,021	0,060
-702,802	172,702	-0,049	-0,053
-701,787	-200,000	-0,014	0,062
-700,772	800,000	-0,048	-0,141
-699,758	-200,000	-0,018	-0,121
-698,743	63,986	0,131	0,098
-697,729	63,921	-0,024	0,018
-696,714	-154,600	-0,121	-0,006
-695,699	-150,401	-0,024	0,001
-694,685	140,556	-0,081	-0,080
-693,670	-200,000	0,017	-0,077
-692,656	-200,000	-0,024	-0,123
-691,641	105,663	0,147	0,130
-690,627	-200,000	0,009	0,084
-689,612	447,504	-0,016	0,026
-688,597	-200,000	0,011	-0,068
-687,583	65,292	-0,053	-0,040
-686,568	388,601	-0,059	-0,092
-685,554	800,000	-0,029	0,073
-684,539	119,085	0,107	0,098
-683,524	-81,085	-0,050	0,012
-682,510	51,320	-0,089	-0,063
-681,495	-200,000	-0,013	0,221
-680,481	113,032	-0,072	-0,065
-679,466	75,377	-0,064	-0,050
-678,451	800,000	0,009	0,021
-677,437	-73,238	0,094	0,025
-676,422	-200,000	-0,018	0,109
-675,408	-44,302	-0,137	-0,051
-674,393	354,426	-0,105	0,156
-673,378	164,034	-0,068	-0,072
-672,364	-34,459	-0,131	0,053
-671,349	800,000	-0,049	-0,122
-670,335	672,897	0,033	-0,064
-669,320	-123,635	-0,020	0,002
-668,305	220,766	0,070	0,083
-667,291	-200,000	0,032	0,109
-666,276	-200,000	0,012	-0,095
-665,262	-36,554	0,012	-0,005
-664,247	196,189	0,071	0,080
-663,232	-92,341	-0,084	-0,017
-662,218	-83,265	0,039	-0,009
-661,203	-60,711	0,144	0,045
-660,189	107,222	-0,036	0,032
-659,174	-45,480	-0,184	-0,067
-658,159	24,393	-0,067	-0,041
-657,145	-200,000	-0,003	-0,092
-656,130	668,074	-0,052	0,100
-655,116	-200,000	0,026	0,087
-654,101	800,000	-0,024	0,051
-653,086	232,353	-0,058	-0,071
-652,072	144,412	-0,043	0,043
-651,057	161,466	-0,046	0,048
-650,043	336,897	0,052	0,075
-649,028	306,217	-0,120	-0,166
-648,014	6,749	0,019	-0,010
-646,999	800,000	0,067	0,142
-645,984	125,470	-0,029	0,028
-644,970	278,434	-0,105	-0,139
-643,955	-100,041	0,054	0,010
-642,941	-116,387	-0,123	-0,017
-641,926	-63,638	0,044	0,013
-640,911	16,984	0,106	0,062
-639,897	98,974	0,154	0,132
-638,882	-200,000	-0,008	0,106
-637,868	61,437	-0,018	-0,014
-636,853	113,167	-0,068	-0,061
-635,838	484,731	-0,064	-0,109
-634,824	192,807	0,098	-0,110
-633,809	-200,000	0,003	-0,035
-632,795	-200,000	-0,047	-0,174
-631,780	-200,000	-0,019	0,075
-630,765	800,000	0,021	0,054
-629,751	-200,000	0,020	-0,131
-628,736	-4,120	-0,092	-0,047
-627,722	481,511	-0,046	0,077
-626,707	-71,830	-0,102	-0,028
-625,692	-200,000	-0,025	-0,081
-624,678	-57,232	-0,046	-0,015
-623,663	475,028	0,048	0,080
-622,649	-200,000	0,002	-0,029
-621,634	103,724	-0,107	-0,093
-620,619	200,390	-0,021	0,024
-619,605	-37,707	0,197	-0,077
-618,590	406,813	0,042	0,065
-617,576	-200,000	0,003	0,091
-616,561	-200,000	-0,011	-0,144
-615,546	134,970	0,028	0,027
-614,532	800,000	-0,027	-0,061
-613,517	-26,022	-0,111	-0,048
-612,503	-39,436	0,077	0,030
-611,488	-200,000	0,019	-0,088
-610,474	-200,000	0,039	0,145
-609,459	800,000	-0,074	0,164
-608,444	-2,771	0,106	0,055
-607,430	-105,670	-0,134	-0,022
-606,415	-16,717	0,072	-0,034
-605,401	800,000	0,010	-0,032
-604,386	129,650	-0,102	0,096
-603,371	41,380	0,010	-0,007
-602,357	-129,996	0,069	-0,007
-601,342	-12,233	-0,038	0,018
-600,328	-200,000	0,005	-0,029
-599,313	-200,000	-0,015	0,077
-598,298	-200,000	0,018	-0,070
-597,284	614,661	-0,044	-0,082
-596,269	136,483	-0,099	0,096
-595,255	-185,795	-0,043	0,000
-594,240	-200,000	-0,018	-0,060
-593,225	17,405	-0,113	0,066
-592,211	686,656	-0,012	0,024
-591,196	800,000	0,053	0,123
-590,182	146,535	-0,078	0,077
-589,167	71,506	0,051	0,040
-588,152	604,916	-0,048	-0,088
-587,138	-109,085	-0,062	0,010
-586,123	405,751	-0,045	-0,070
-585,109	543,908	-0,080	-0,143
-584,094	400,432	0,053	0,082
-583,079	74,016	-0,030	0,023
-582,065	54,808	0,043	0,031
-581,050	800,000	-0,029	-0,090
-580,036	-47,847	-0,126	-0,045
-579,021	-167,869	-0,037	-0,001
-578,006	800,000	-0,045	-0,100
-576,992	20,245	-0,129	0,077
-575,977	271,416	0,081	-0,106
-574,963	67,386	-0,011	0,009
-573,948	-97,379	-0,037	0,007
-572,934	-200,000	0,004	-0,058
-571,919	82,664	-0,040	-0,032
-570,904	57,075	0,093	0,067
-569,890	17,235	0,034	-0,020
-568,875	-149,455	0,106	-0,006
-567,861	-73,076	-0,124	-0,033
-566,846	-63,552	0,036	-0,011
-565,831	127,973	0,008	-0,007
-564,817	501,127	-0,035	-0,059
-563,802	148,529	-0,081	-0,081
-562,788	62,178	-0,073	-0,054
-561,773	-69,886	-0,087	-0,024
-560,758	119,221	-0,084	-0,077
-559,744	-62,576	0,074	-0,023
-558,729	-200,000	-0,003	0,029
-557,715	355,843	-0,020	0,029
-556,700	-200,000	-0,004	-0,217
-555,685	-123,314	-0,135	0,016
-554,671	136,476	0,064	0,062
-553,656	-71,736	0,185	0,051
-552,642	800,000	-0,038	0,093
-551,627	-94,211	0,138	-0,028
-550,612	-22,727	-0,104	-0,046
-549,598	-200,000	0,008	0,105
-548,583	-33,243	-0,072	0,029
-547,569	-200,000	-0,000	0,019
-546,554	676,827	0,044	0,084
-545,539	405,153	0,061	0,095
-544,525	-162,616	0,047	-0,002
-543,510	344,374	-0,048	0,070
-542,496	-59,429	0,119	0,038
-541,481	46,973	0,068	0,046
-540,466	-200,000	-0,052	0,182
-539,452	36,184	0,100	-0,065
-538,437	197,075	0,018	-0,021
-537,423	-143,571	-0,100	0,007
-536,408	-80,078	0,131	0,032
-535,393	-7,260	0,041	-0,021
-534,379	-200,000	0,023	-0,239
-533,364	94,272	-0,065	-0,054
-532,350	-94,904	0,065	0,013
-531,335	-144,162	0,028	0,002
-530,321	-200,000	0,012	0,058
-529,306	-165,578	-0,035	0,001
-528,291	169,944	-0,100	0,106
-527,277	348,960	-0,042	-0,061
-526,262	-145,559	0,039	-0,003
-525,248	-200,000	0,032	0,113
-524,233	125,179	-0,123	-0,115
-523,218	288,806	-0,031	-0,042
-522,204	-22,619	-0,010	0,004
-521,189	295,661	-0,043	0,058
-520,175	800,000	-0,041	-0,129
-519,160	800,000	-0,036	-0,117
-518,145	-17,302	-0,051	-0,024
-517,131	-24,039	0,033	0,015
-516,116	-147,973	-0,057	-0,003
-515,102	87,110	-0,022	0,018
-514,087	800,000	-0,040	0,096
-513,072	6,570	-0,040	-0,022
-512,058	-200,000	0,021	0,107
-511,043	-124,865	0,117	-0,013
-510,029	488,814	0,069	-0,116
-509,014	81,613	0,033	0,026
-507,999	-113,019	0,099	0,014
-506,985	800,000	0,023	0,068
-505,970	800,000	0,028	-0,074
-504,956	800,000	0,048	0,119
-503,941	-200,000	-0,022	-0,092
-502,926	53,969	0,046	-0,032
-501,912	-110,569	0,084	0,013
-500,897	800,000	0,026	-0,062
-499,883	387,418	-0,063	0,096
-498,868	652,273	-0,046	0,088
-497,853	-193,622	-0,170	-0,001
-496,839	-142,065	0,060	0,004
-495,824	34,395	-0,033	0,021
-494,810	800,000	0,033	-0,083
-493,795	481,490	-0,051	-0,085
-492,781	-147,885	-0,074	0,004
-491,766	124,644	-0,135	-0,126
-490,751	-48,777	0,080	0,028
-489,737	-200,000	0,024	0,170
-488,722	-150,433	-0,161	0,009
-487,708	-58,684	0,145	-0,046
-486,693	-200,000	-0,011	-0,104
-485,678	-68,807	-0,033	0,009
-484,664	51,717	-0,100	0,070
-483,649	115,363	-0,033	0,030
-482,635	-200,000	-0,006	-0,025
-481,620	-44,889	0,065	-0,024
-480,605	65,676	0,195	-0,145
-479,591	-200,000	0,051	-0,192
-478,576	-141,641	-0,122	0,009
-477,562	398,803	0,047	-0,073
-476,547	151,557	0,057	-0,057
-475,532	184,867	-0,039	-0,043
-474,518	12,316	0,070	-0,040
-473,503	242,460	0,089	-0,111
-472,489	-200,000	0,020	-0,075
-471,474	-200,000	0,002	-0,058
-470,459	483,672	-0,054	0,090
-469,445	-200,000	0,013	0,046
-468,430	800,000	0,055	-0,134
-467,416	207,892	0,081	-0,093
-466,401	-200,000	0,013	0,135
-465,386	392,228	0,050	0,077
-464,372	-200,000	0,003	0,053
-463,357	-79,812	0,099	-0,024
-462,343	800,000	-0,036	-0,102
-461,328	39,023	-0,126	-0,083
-460,313	555,974	-0,051	0,091
-459,299	114,844	0,045	0,041
-458,284	55,138	0,167	0,119
-457,270	262,642	-0,044	0,056
-456,255	-21,865	-0,030	0,013
-455,241	800,000	0,016	0,040
-454,226	-200,000	-0,003	-0,105
-453,211	43,634	-0,084	-0,057
-452,197	800,000	0,042	-0,087
-451,182	-91,867	0,075	0,015
-450,168	-200,000	-0,005	0,018
-449,153	-106,603	0,087	0,014
-448,138	-200,000	-0,020	-0,066
-447,124	-164,331	0,073	0,002
-446,109	83,582	0,052	0,042
-445,095	-200,000	-0,001	-0,091
-444,080	105,304	0,035	0,031
-443,065	-21,491	0,038	0,017
-442,051	-195,688	0,028	0,000
-441,036	-200,000	-0,021	-0,156
-440,022	48,437	0,054	-0,038
-439,007	199,545	0,054	-0,061
-437,992	-13,239	0,144	-0,068
-436,978	-200,000	-0,024	0,152
-435,963	103,512	-0,039	0,034
-434,949	261,075	0,056	0,071
-433,934	330,094	0,071	-0,102
-432,919	53,121	0,035	-0,025
-431,905	772,705	-0,017	0,035
-430,890	800,000	0,043	0,117
-429,876	800,000	0,055	-0,156
-428,861	-200,000	-0,010	-0,177
-427,846	83,355	0,034	-0,027
-426,832	76,933	0,060	-0,047
-425,817	-147,339	-0,099	0,006
-424,803	800,000	-0,007	0,016
-423,788	800,000	0,045	0,098
-422,773	717,657	-0,038	0,074
-421,759	-16,066	0,041	-0,019
-420,744	-42,517	-0,141	-0,052
-419,730	-200,000	0,001	-0,028
-418,715	-43,440	0,044	-0,016
-417,701	-68,883	-0,071	0,020
-416,686	-200,000	-0,022	0,081
-415,671	-200,000	-0,005	-0,116
-414,657	129,822	0,052	0,049
-413,642	416,252	-0,081	-0,127
-412,628	800,000	0,033	-0,103
-411,613	-15,426	-0,051	-0,024
-410,598	-62,820	0,088	-0,027
-409,584	-151,546	-0,068	-0,004
-408,569	-200,000	-0,015	-0,081
-407,555	472,130	0,041	0,068
-406,540	-200,000	-0,003	0,106
-405,525	800,000	-0,044	-0,100
-404,511	416,852	-0,085	-0,134
-403,496	-29,560	0,109	-0,046
-402,482	148,322	0,066	-0,066
-401,467	6,330	0,028	-0,015
-400,452	36,874	-0,147	0,095
-399,438	-90,679	-0,120	-0,025
-398,423	-60,516	-0,054	-0,017
-397,409	800,000	-0,005	0,013
-396,394	-200,000	0,039	-0,145
-395,379	-200,000	-0,000	0,100
-394,365	-84,777	0,171	0,039
-393,350	-172,509	0,210	0,005
-392,336	-200,000	0,015	0,144
-391,321	-69,842	0,070	-0,019
-390,306	-44,155	-0,022	-0,008
-389,292	800,000	-0,017	0,051
-388,277	-200,000	-0,013	0,096
-387,263	91,944	0,088	0,072
-386,248	800,000	-0,045	0,137
-385,233	204,029	0,031	0,036
-384,219	-200,000	-0,015	-0,070
-383,204	168,591	-0,094	0,099
-382,190	-200,000	0,020	0,085
-381,175	-200,000	0,015	0,068
-380,160	-4,052	0,064	0,033
-379,146	-200,000	-0,009	0,057
-378,131	93,866	0,138	0,115
-377,117	763,854	0,019	0,039
-376,102	800,000	-0,025	-0,052
-375,088	-126,020	-0,130	-0,014
-374,073	-174,636	-0,097	0,002
-373,058	-59,673	-0,015	0,005
-372,044	391,327	-0,029	0,045
-371,029	-138,508	0,074	0,006
-370,015	-123,824	-0,136	0,016
-369,000	-119,904	-0,084	-0,011
-367,985	-102,799	-0,052	-0,009
-366,971	66,819	0,043	0,032
-365,956	69,756	0,028	0,021
-364,942	15,593	-0,112	-0,065
-363,927	299,856	-0,026	0,036
-362,912	-92,269	-0,090	-0,018
-361,898	425,792	-0,042	-0,067
-360,883	541,967	-0,091	-0,160
-359,869	147,508	-0,032	0,032
-358,854	85,571	0,088	0,071
-357,839	800,000	0,057	0,168
-356,825	-200,000	0,012	0,090
-355,810	-73,826	-0,020	-0,005
-354,796	-126,824	-0,107	0,011
-353,781	-46,293	-0,023	0,008
-352,766	800,000	-0,076	-0,190
-351,752	-112,755	0,111	-0,016
-350,737	800,000	0,026	-0,057
-349,723	-118,350	0,072	-0,009
-348,708	-200,000	0,035	0,137
-347,693	800,000	-0,019	0,041
-346,679	524,767	0,027	-0,047
-345,664	800,000	-0,016	0,038
-344,650	-71,907	0,029	0,008
-343,635	411,785	-0,056	-0,088
-342,620	-102,856	0,063	0,011
-341,606	236,861	-0,143	0,174
-340,591	-200,000	0,007	0,073
-339,577	509,070	-0,053	-0,090
-338,562	-90,585	-0,148	-0,031
-337,548	-78,280	0,058	-0,015
-336,533	4,175	0,024	-0,013
-335,518	-48,540	-0,046	-0,016
-334,504	800,000	0,043	0,121
-333,489	34,803	-0,087	0,056
-332,475	-200,000	0,028	0,208
-331,460	-133,975	0,046	0,004
-330,445	18,345	-0,064	-0,037
-329,431	-40,180	0,154	0,058
-328,416	800,000	0,011	0,025
-327,402	-89,342	-0,121	-0,026
-326,387	-84,846	-0,061	-0,014
-325,372	800,000	0,046	-0,116
-324,358	800,000	0,016	-0,033
-323,343	-200,000	-0,002	-0,074
-322,329	-200,000	-0,003	-0,034
-321,314	-136,144	0,090	0,008
-320,299	32,062	0,053	-0,033
-319,285	369,186	0,046	0,069
-318,270	371,311	0,094	-0,140
-317,256	429,412	-0,086	-0,136
-316,241	-160,062	-0,067	0,003
-315,226	-18,974	0,122	0,056
-314,212	98,621	0,161	0,136
-313,197	-200,000	-0,005	-0,023
-312,183	-34,864	-0,011	0,004
-311,168	800,000	0,019	0,059
-310,153	-200,000	-0,001	-0,016
-309,139	55,225	-0,113	-0,080
-308,124	-38,636	0,086	0,033
-307,110	-200,000	-0,002	0,136
-306,095	-135,909	0,115	0,010
-305,080	800,000	0,031	-0,092
-304,066	-200,000	-0,006	-0,038
-303,051	800,000	0,044	0,136
-302,037	-86,885	-0,043	0,010
-301,022	69,217	-0,043	-0,032
-300,008	-200,000	-0,002	-0,009
-298,993	-200,000	-0,024	0,149
-297,978	143,114	0,071	0,069
-296,964	-200,000	-0,013	0,042
-295,949	9,291	0,062	-0,035
-294,935	-95,368	-0,134	-0,026
-293,920	-80,290	0,016	-0,004
-292,905	495,932	0,085	-0,144
-291,891	-200,000	-0,015	0,082
-290,876	799,271	0,066	-0,134
-289,862	-200,000	-0,011	0,039
-288,847	-200,000	-0,018	-0,127
-287,832	444,129	0,007	0,011
-286,818	800,000	0,009	-0,027
-285,803	800,000	-0,050	0,145
-284,789	-200,000	0,007	0,060
-283,774	-200,000	0,006	0,093
-282,759	29,912	0,057	0,036
-281,745	88,719	-0,103	-0,084
-280,730	-134,184	-0,017	-0,001
-279,716	35,903	-0,044	0,029
-278,701	-49,468	0,035	-0,012
-277,686	52,025	-0,080	0,055
-276,672	800,000	0,024	0,070
-275,657	-100,354	-0,109	-0,020
-274,643	-140,591	0,063	-0,005
-273,628	-81,114	-0,196	-0,047
-272,613	-145,311	-0,029	0,002
-271,599	-154,766	0,073	0,003
-270,584	-101,740	0,059	0,010
-269,570	800,000	-0,019	0,059
-268,555	-58,848	-0,074	0,023
-267,540	-200,000	0,016	-0,095
-266,526	312,333	0,036	-0,049
-265,511	60,352	-0,129	0,093
-264,497	-200,000	0,037	0,171
-263,482	445,713	0,100	0,162
-262,467	-200,000	0,004	0,091
-261,453	-200,000	-0,000	-0,005
-260,438	375,655	-0,069	0,103
-259,424	800,000	0,073	0,175
-258,409	378,623	-0,073	-0,109
-257,395	-200,000	-0,004	-0,093
-256,380	75,096	-0,082	0,063
-255,365	-15,539	0,077	0,036
-254,351	-200,000	0,009	0,077
-253,336	-113,401	0,018	-0,003
-252,322	-200,000	-0,014	0,061
-251,307	157,979	-0,048	-0,049
-250,292	800,000	0,047	0,096
-249,278	-200,000	-0,002	0,120
-248,263	-200,000	-0,007	0,123
-247,249	18,364	0,033	-0,019
-246,234	51,519	0,094	-0,065
-245,219	61,999	-0,048	-0,035
-244,205	-200,000	0,005	-0,024
-243,190	-200,000	0,008	-0,074
-242,176	514,802	0,051	0,088
-241,161	-89,687	-0,107	0,023
-240,146	522,926	0,030	0,051
-239,132	-165,036	-0,137	0,004
-238,117	800,000	-0,022	-0,070
-237,103	202,543	0,024	-0,027
-236,088	166,358	-0,007	-0,007
-235,073	800,000	0,051	0,157
-234,059	264,913	0,113	0,144
-233,044	-200,000	0,014	0,072
-232,030	-200,000	0,003	-0,020
-231,015	130,514	-0,059	-0,055
-230,000	222,674	0,012	0,014
-228,986	-88,479	0,168	-0,036
-227,971	-158,552	0,150	0,006
-226,957	-200,000	0,000	0,098
-225,942	-64,184	0,043	0,013
-224,927	-200,000	0,001	0,116
-223,913	405,305	0,050	-0,077
-222,898	56,764	-0,149	-0,106
-221,884	-188,528	0,045	-0,000
-220,869	279,384	-0,049	0,064
-219,855	-63,364	0,101	-0,030
-218,840	118,984	-0,049	0,044
-217,825	-200,000	-0,009	0,097
-216,811	413,347	0,065	-0,101
-215,796	755,960	-0,018	0,036
-214,782	-200,000	-0,015	-0,074
-213,767	-6,676	-0,103	-0,051
-212,752	-128,319	0,088	-0,009
-211,738	70,573	0,022	0,017
-210,723	-46,127	-0,041	0,015
-209,709	362,278	-0,041	-0,060
-208,694	142,115	-0,066	0,064
-207,679	521,115	-0,051	0,087
-206,665	-128,766	-0,099	-0,010
-205,650	217,914	0,122	-0,142
-204,636	-78,905	-0,040	0,010
-203,621	-74,921	0,116	0,030
-202,606	-200,000	0,023	-0,093
-201,592	210,134	0,073	-0,083
-200,577	-200,000	-0,000	-0,049
-199,563	211,283	0,093	-0,107
-198,548	39,196	0,047	-0,031
-197,533	200,811	-0,024	0,027
-196,519	800,000	0,030	0,072
-195,504	-200,000	0,007	0,122
-194,490	-200,000	0,010	0,048
-193,475	-200,000	-0,005	-0,097
-192,460	-9,471	0,047	0,023
-191,446	800,000	0,044	-0,130
-190,431	800,000	0,019	-0,045
-189,417	-200,000	0,002	0,047
-188,402	-96,046	-0,019	-0,004
-187,387	283,505	-0,073	-0,096
-186,373	194,688	-0,114	-0,127
-185,358	205,897	-0,049	-0,055
-184,344	-178,584	0,081	0,001
-183,329	164,894	-0,039	0,040
-182,315	-37,285	0,017	0,007
-181,300	-200,000	-0,005	-0,108
-180,285	9,862	0,099	-0,054
-179,271	-23,568	-0,139	-0,061
-178,256	86,714	-0,050	0,040
-177,242	-31,038	0,023	-0,009
-176,227	52,281	-0,081	0,056
-175,212	-200,000	-0,044	0,158
-174,198	800,000	0,047	0,129
-173,183	800,000	-0,009	-0,024
-172,169	800,000	0,025	-0,061
-171,154	221,052	-0,069	-0,080
-170,139	446,753	0,078	0,126
-169,125	-200,000	0,002	0,112
-168,110	81,947	0,107	0,084
-167,096	166,517	-0,020	-0,020
-166,081	575,927	-0,073	-0,131
-165,066	343,733	-0,065	0,094
-164,052	703,630	0,016	0,030
-163,037	-107,317	0,133	-0,021
-162,023	-154,069	0,078	0,004
-161,008	-70,280	-0,062	0,017
-159,993	-200,000	0,004	0,072
-158,979	77,574	-0,128	-0,099
-157,964	-200,000	0,010	-0,225
-156,950	-110,559	-0,070	-0,010
-155,935	-81,330	0,107	-0,025
-154,920	-200,000	-0,018	0,105
-153,906	-47,908	0,075	-0,026
-152,891	-8,680	-0,055	-0,027
-151,877	-200,000	-0,015	-0,081
-150,862	165,916	-0,072	-0,075
-149,847	-154,850	0,045	-0,002
-148,833	32,838	-0,113	-0,071
-147,818	402,685	-0,040	0,061
-146,804	386,131	-0,030	0,045
-145,789	-200,000	0,007	0,073
-144,775	800,000	-0,053	0,111
-143,760	-10,279	-0,069	-0,033
-142,745	226,163	0,046	-0,054
-141,731	225,327	-0,059	0,070
-140,716	800,000	0,038	0,077
-139,702	-200,000	0,009	-0,045
-138,687	54,424	0,114	0,080
-137,672	-92,506	-0,204	-0,041
-136,658	563,406	-0,107	-0,189
-135,643	-103,840	-0,116	0,019
-134,629	-191,450	-0,051	0,000
-133,614	-200,000	0,022	-0,127
-132,599	-200,000	-0,008	-0,121
-131,585	800,000	0,069	-0,159
-130,570	-156,221	-0,090	-0,004
-129,556	445,410	-0,016	-0,025
-128,541	202,745	-0,053	-0,059
-127,526	-37,528	-0,063	-0,024
-126,512	217,083	-0,023	0,027
-125,497	-39,655	-0,044	-0,017
-124,483	-200,000	0,014	0,045
-123,468	-200,000	-0,002	-0,138
-122,453	-200,000	-0,014	-0,052
-121,439	-98,248	0,027	-0,005
-120,424	-200,000	0,018	0,132
