DTS Sentinel unit serial number:	SN410029Multiplexer serial number:	ORYXHardware model number:	OX2-SRSoftware version number:	ORYX F/W v4,00 Oryx Data Collector v3.7.2.0data status	okinstallation	B6 Nyhavnadifferential loss correction	single-endedforward channel	channel 2reverse channel	N/Adate	2023/12/09time	12:15:08forward acquisition time	300,00reverse acquisition time	0,00gamma	499,1914k internal	0,3139k external	0,3139temperature offset calibration	1,0000default loss term (dB/km)	0,3820temperature slope calibration	1,0000multiplexer offset coefficient	1,0000multiplexer slope coefficient	1,0000fibre end	0,00T internal ref (°C)	19,22T ext. ref 1 (°C)	3,71T ext. ref 2 (°C)	3,71length (m)	temperature (°C)	Stokes	anti-Stokes-744,400	252,963	0,018	0,023
-743,385	-101,906	-0,378	0,067
-742,371	-176,011	0,225	0,004
-741,356	-137,810	-0,289	-0,024
-740,342	-125,818	0,095	-0,010
-739,327	-134,492	-0,204	-0,018
-738,312	771,655	0,043	0,087
-737,298	-61,593	-0,368	0,114
-736,283	-200,000	0,001	-0,032
-735,269	-62,617	-0,250	0,076
-734,254	-200,000	-0,004	-0,032
-733,239	-143,496	-0,370	-0,026
-732,225	-91,503	0,183	0,038
-731,210	332,656	-0,116	0,166
-730,196	-45,599	-0,074	-0,027
-729,181	-200,000	-0,001	-0,071
-728,167	800,000	-0,039	0,091
-727,152	800,000	0,027	-0,081
-726,137	-51,799	-0,104	-0,036
-725,123	-200,000	-0,028	-0,187
-724,108	-200,000	0,028	-0,108
-723,094	372,813	-0,073	0,110
-722,079	209,054	0,038	-0,044
-721,064	152,960	-0,096	-0,097
-720,050	-200,000	-0,019	-0,099
-719,035	337,255	-0,067	-0,096
-718,021	-129,987	-0,036	0,004
-717,006	367,012	-0,067	-0,101
-715,991	131,566	-0,123	-0,117
-714,977	265,298	-0,144	-0,186
-713,962	62,027	-0,066	-0,048
-712,948	288,079	0,063	-0,084
-711,933	555,116	-0,019	0,033
-710,918	-134,590	0,103	0,009
-709,904	-112,015	0,020	0,003
-708,889	46,102	-0,176	-0,120
-707,875	-26,785	0,086	0,037
-706,860	800,000	0,013	-0,028
-705,845	-32,614	-0,140	-0,057
-704,831	800,000	0,025	-0,068
-703,816	9,768	-0,108	-0,061
-702,802	-2,745	-0,150	-0,077
-701,787	800,000	0,026	0,085
-700,772	-134,836	-0,059	-0,005
-699,758	-6,278	0,041	0,020
-698,743	-200,000	-0,005	0,088
-697,729	-99,577	-0,166	-0,031
-696,714	2,967	-0,058	0,031
-695,699	30,114	-0,101	0,063
-694,685	800,000	0,045	-0,098
-693,670	800,000	-0,075	-0,161
-692,656	800,000	-0,017	-0,035
-691,641	-93,188	-0,032	0,006
-690,627	-200,000	-0,018	-0,082
-689,612	667,826	-0,024	-0,046
-688,597	113,478	0,049	-0,044
-687,583	107,210	0,062	-0,055
-686,568	800,000	-0,046	-0,113
-685,554	322,330	0,007	-0,010
-684,539	289,152	0,033	-0,045
-683,524	23,736	0,127	-0,077
-682,510	-37,090	-0,087	-0,034
-681,495	-200,000	-0,011	-0,117
-680,481	55,748	-0,058	-0,042
-679,466	-115,592	-0,089	-0,012
-678,451	800,000	0,040	0,120
-677,437	-200,000	0,018	0,069
-676,422	-200,000	0,021	-0,084
-675,408	-200,000	-0,031	-0,125
-674,393	-200,000	0,007	0,087
-673,378	-97,038	-0,032	0,006
-672,364	282,124	-0,055	0,074
-671,349	163,362	-0,091	-0,095
-670,335	-24,026	0,061	0,027
-669,320	-136,424	0,084	0,007
-668,305	186,016	-0,034	0,037
-667,291	-33,011	-0,101	0,041
-666,276	43,821	0,088	0,060
-665,262	30,083	-0,165	-0,104
-664,247	-200,000	0,027	-0,111
-663,232	-200,000	-0,016	0,064
-662,218	631,996	-0,008	-0,014
-661,203	745,956	-0,012	0,025
-660,189	181,446	0,033	-0,036
-659,174	209,113	-0,072	-0,084
-658,159	18,339	0,069	0,041
-657,145	-200,000	-0,023	-0,130
-656,130	10,125	0,078	-0,043
-655,116	800,000	0,079	-0,180
-654,101	-74,722	0,123	-0,032
-653,086	50,325	-0,040	0,028
-652,072	-200,000	0,012	-0,055
-651,057	-21,562	-0,114	-0,051
-650,043	-200,000	-0,029	-0,142
-649,028	133,080	0,022	0,021
-648,014	-119,869	0,112	-0,014
-646,999	170,593	0,049	0,051
-645,984	-63,728	-0,085	-0,026
-644,970	-138,949	-0,122	0,010
-643,955	-200,000	-0,012	-0,125
-642,941	-31,135	-0,057	-0,024
-641,926	577,096	-0,033	-0,060
-640,911	63,939	0,045	-0,034
-639,897	-200,000	0,017	0,077
-638,882	38,954	0,109	0,072
-637,868	-200,000	-0,006	-0,022
-636,853	-3,559	-0,128	-0,066
-635,838	-200,000	0,012	-0,124
-634,824	-200,000	0,053	-0,192
-633,809	-118,235	-0,104	0,014
-632,795	-91,256	-0,067	-0,014
-631,780	-28,107	-0,045	0,019
-630,765	-200,000	-0,047	-0,171
-629,751	-119,893	-0,098	-0,012
-628,736	323,844	0,002	-0,003
-627,722	-163,995	0,040	-0,001
-626,707	-9,445	0,062	0,030
-625,692	234,405	0,093	0,114
-624,678	800,000	0,071	0,149
-623,663	-12,053	-0,030	-0,015
-622,649	164,147	-0,107	0,112
-621,634	-200,000	0,026	-0,162
-620,619	-123,223	0,171	-0,020
-619,605	-94,018	0,143	-0,029
-618,590	800,000	-0,048	-0,123
-617,576	-200,000	-0,025	-0,157
-616,561	-24,435	0,053	0,023
-615,546	-63,005	-0,090	-0,027
-614,532	197,921	-0,085	-0,096
-613,517	92,674	-0,072	-0,060
-612,503	120,643	-0,118	-0,108
-611,488	189,148	0,075	0,082
-610,474	-113,358	-0,141	-0,020
-609,459	800,000	-0,020	0,063
-608,444	76,536	0,052	-0,040
-607,430	-200,000	-0,000	-0,021
-606,415	-200,000	-0,013	-0,058
-605,401	-200,000	0,010	-0,102
-604,386	456,969	-0,034	0,056
-603,371	-200,000	-0,002	0,062
-602,357	129,191	0,134	0,126
-601,342	-94,072	-0,146	0,029
-600,328	393,930	0,030	-0,046
-599,313	-45,106	0,051	-0,019
-598,298	-153,309	-0,101	0,005
-597,284	143,732	-0,111	0,109
-596,269	-200,000	0,011	0,054
-595,255	-15,774	0,083	0,039
-594,240	-46,888	-0,077	0,028
-593,225	800,000	0,021	-0,049
-592,211	-200,000	-0,015	-0,098
-591,196	-82,659	0,028	-0,007
-590,182	-200,000	-0,022	0,077
-589,167	-200,000	-0,018	0,130
-588,152	302,133	0,015	0,021
-587,138	-107,902	0,025	0,004
-586,123	-48,488	-0,074	-0,026
-585,109	56,114	-0,059	0,043
-584,094	143,938	-0,068	0,067
-583,079	183,318	-0,092	0,100
-582,065	-167,343	0,108	0,003
-581,050	-167,034	-0,107	-0,003
-580,036	-127,224	-0,128	0,014
-579,021	-200,000	0,026	-0,127
-578,006	-53,670	0,116	-0,039
-576,992	89,265	0,077	0,063
-575,977	-130,434	0,096	0,009
-574,963	-111,368	-0,075	-0,011
-573,948	-200,000	0,020	0,087
-572,934	-106,921	0,028	-0,005
-571,919	16,167	0,007	0,004
-570,904	800,000	-0,090	-0,221
-569,890	396,365	-0,009	0,015
-568,875	-200,000	-0,022	0,111
-567,861	35,385	0,093	-0,060
-566,846	33,900	0,096	0,061
-565,831	29,259	-0,098	-0,061
-564,817	-200,000	0,012	-0,092
-563,802	800,000	-0,042	0,122
-562,788	251,715	-0,096	0,121
-561,773	-200,000	0,006	0,042
-560,758	139,422	0,058	0,057
-559,744	-132,219	0,038	0,004
-558,729	728,869	0,079	-0,156
-557,715	-63,899	-0,047	-0,014
-556,700	13,062	-0,165	0,094
-555,685	-86,092	-0,079	-0,018
-554,671	39,872	0,126	0,083
-553,656	800,000	-0,029	0,059
-552,642	487,240	-0,055	-0,093
-551,627	-59,673	0,118	-0,037
-550,612	173,452	-0,111	-0,118
-549,598	-18,618	0,104	-0,048
-548,583	-135,526	-0,082	-0,007
-547,569	-200,000	0,005	0,040
-546,554	-200,000	-0,041	0,175
-545,539	-81,383	0,143	-0,034
-544,525	497,479	0,074	0,125
-543,510	-200,000	-0,011	-0,097
-542,496	121,657	-0,125	-0,115
-541,481	319,674	-0,016	-0,022
-540,466	-36,037	0,070	0,028
-539,452	692,246	-0,052	-0,100
-538,437	205,387	0,091	-0,104
-537,423	-126,806	-0,050	-0,005
-536,408	-98,777	-0,095	0,018
-535,393	169,123	-0,097	-0,102
-534,379	117,837	0,131	-0,119
-533,364	-200,000	-0,001	-0,056
-532,350	74,066	-0,032	0,024
-531,335	-200,000	0,012	0,046
-530,321	-16,097	0,064	-0,030
-529,306	-64,789	0,092	0,027
-528,291	-53,678	0,051	0,017
-527,277	130,220	-0,107	-0,101
-526,262	800,000	-0,038	0,081
-525,248	-200,000	-0,028	-0,106
-524,233	494,273	0,050	0,085
-523,218	11,542	-0,124	0,070
-522,204	265,112	-0,057	0,073
-521,189	95,248	-0,088	0,074
-520,175	-200,000	0,018	-0,243
-519,160	19,522	0,082	0,048
-518,145	190,793	-0,053	-0,059
-517,131	40,891	-0,067	-0,045
-516,116	719,207	0,057	0,111
-515,102	-200,000	0,006	0,154
-514,087	228,024	-0,050	0,060
-513,072	-23,720	-0,118	-0,052
-512,058	163,866	-0,048	0,050
-511,043	188,582	0,050	0,055
-510,029	-200,000	0,006	-0,056
-509,014	684,281	0,010	-0,020
-507,999	373,248	0,051	0,077
-506,985	-25,958	-0,102	-0,044
-505,970	48,538	0,109	0,075
-504,956	656,096	-0,051	-0,097
-503,941	800,000	0,050	0,152
-502,926	800,000	-0,024	0,065
-501,912	-89,204	-0,143	-0,031
-500,897	-167,826	-0,080	0,002
-499,883	204,938	0,074	0,084
-498,868	800,000	0,026	-0,066
-497,853	311,214	-0,012	-0,016
-496,839	-80,838	-0,154	0,037
-495,824	-200,000	0,006	0,135
-494,810	55,406	0,126	0,089
-493,795	800,000	0,031	-0,071
-492,781	-29,089	0,035	0,015
-491,766	530,024	-0,044	0,077
-490,751	417,984	-0,036	0,056
-489,737	800,000	-0,025	-0,075
-488,722	81,284	0,092	0,073
-487,708	-200,000	0,000	0,024
-486,693	-159,170	0,058	-0,002
-485,678	-69,693	-0,099	-0,028
-484,664	-200,000	0,051	-0,177
-483,649	-155,366	-0,085	0,004
-482,635	-84,196	0,048	0,011
-481,620	-200,000	-0,027	-0,195
-480,605	-122,276	0,048	-0,006
-479,591	642,267	-0,093	0,174
-478,576	-43,583	-0,093	-0,034
-477,562	-200,000	0,011	0,075
-476,547	625,124	0,018	-0,034
-475,532	-3,821	0,108	-0,055
-474,518	355,572	-0,044	-0,065
-473,503	116,311	-0,057	0,051
-472,489	-19,844	0,061	0,027
-471,474	179,502	-0,044	-0,047
-470,459	-84,500	-0,047	0,011
-469,445	-5,344	-0,109	-0,055
-468,430	-200,000	0,004	-0,024
-467,416	258,160	0,038	-0,048
-466,401	13,693	0,064	-0,036
-465,386	800,000	-0,016	-0,038
-464,372	348,424	0,045	0,066
-463,357	124,691	-0,031	0,029
-462,343	-200,000	0,029	-0,131
-461,328	-141,289	0,177	-0,013
-460,313	-200,000	-0,027	0,211
-459,299	-12,908	-0,129	-0,061
-458,284	-94,764	-0,056	0,011
-457,270	28,545	0,202	-0,125
-456,255	539,196	-0,067	-0,117
-455,241	-112,012	-0,067	-0,010
-454,226	230,741	0,007	-0,009
-453,211	137,015	0,043	0,041
-452,197	800,000	0,043	-0,097
-451,182	58,483	0,097	0,070
-450,168	25,261	-0,055	0,034
-449,153	-15,281	0,045	-0,021
-448,138	15,618	-0,117	0,067
-447,124	-21,382	0,061	-0,027
-446,109	686,178	-0,034	0,065
-445,095	-80,000	-0,047	0,012
-444,080	30,339	-0,027	-0,017
-443,065	392,062	-0,025	-0,038
-442,051	-48,912	0,091	-0,032
-441,036	103,088	-0,135	0,116
-440,022	-59,115	0,091	-0,029
-439,007	0,054	0,141	-0,073
-437,992	129,281	0,065	-0,061
-436,978	40,580	0,139	0,092
-435,963	736,613	0,028	0,055
-434,949	-22,965	0,009	-0,004
-433,934	-200,000	-0,010	-0,043
-432,919	800,000	-0,037	-0,088
-431,905	47,566	-0,061	0,041
-430,890	-102,899	-0,013	-0,002
-429,876	124,061	0,082	-0,076
-428,861	-200,000	0,030	-0,124
-427,846	-83,885	-0,125	0,029
-426,832	-92,438	0,054	-0,011
-425,817	50,215	0,118	-0,081
-424,803	800,000	0,032	-0,097
-423,788	800,000	0,040	0,119
-422,773	-200,000	0,009	0,135
-421,759	128,715	-0,045	0,042
-420,744	137,282	0,014	0,013
-419,730	-53,722	-0,050	0,017
-418,715	40,362	0,029	0,019
-417,701	-200,000	-0,001	-0,021
-416,686	443,389	0,041	-0,066
-415,671	-200,000	0,012	-0,048
-414,657	-200,000	-0,011	0,082
-413,642	43,827	-0,077	-0,052
-412,628	286,983	0,041	-0,055
-411,613	-148,502	-0,064	-0,004
-410,598	175,976	-0,011	-0,012
-409,584	259,966	0,037	-0,046
-408,569	800,000	-0,020	-0,050
-407,555	74,610	0,068	-0,052
-406,540	475,297	-0,126	0,209
-405,525	-200,000	0,000	-0,073
-404,511	-39,822	0,160	-0,061
-403,496	4,807	-0,081	0,044
-402,482	647,201	-0,037	0,070
-401,467	800,000	0,032	0,070
-400,452	249,965	0,042	0,052
-399,438	-200,000	0,003	0,064
-398,423	800,000	-0,004	-0,012
-397,409	-200,000	-0,001	-0,013
-396,394	-200,000	0,013	-0,057
-395,379	217,519	0,031	-0,036
-394,365	-200,000	-0,006	-0,032
-393,350	-200,000	0,021	0,150
-392,336	-140,126	-0,051	0,004
-391,321	48,546	0,021	0,014
-390,306	102,154	0,095	-0,081
-389,292	800,000	-0,024	0,064
-388,277	-200,000	0,007	-0,060
-387,263	-26,005	0,140	0,060
-386,248	275,693	0,061	-0,079
-385,233	-200,000	-0,010	0,035
-384,219	-200,000	-0,014	-0,068
-383,204	-119,850	-0,051	-0,006
-382,190	338,227	-0,059	-0,084
-381,175	-200,000	0,024	-0,136
-380,160	115,225	-0,065	-0,058
-379,146	-35,807	0,107	-0,042
-378,131	-23,621	0,070	-0,031
-377,117	800,000	0,012	0,026
-376,102	800,000	-0,011	-0,026
-375,088	-90,242	-0,075	-0,016
-374,073	-64,913	0,119	-0,035
-373,058	174,961	0,050	-0,053
-372,044	-200,000	-0,008	0,078
-371,029	418,830	0,073	0,114
-370,015	-200,000	-0,009	0,044
-369,000	-108,239	0,072	-0,011
-367,985	6,671	-0,083	-0,045
-366,971	-200,000	-0,002	0,088
-365,956	800,000	-0,032	0,078
-364,942	174,218	0,054	-0,057
-363,927	-153,197	0,124	0,006
-362,912	800,000	0,022	-0,059
-361,898	37,584	0,082	0,053
-360,883	800,000	0,019	0,041
-359,869	42,488	0,048	-0,032
-358,854	18,569	0,081	0,047
-357,839	145,064	0,095	0,092
-356,825	86,003	0,059	0,047
-355,810	98,821	-0,127	0,107
-354,796	75,664	-0,055	0,042
-353,781	800,000	-0,049	-0,142
-352,766	173,444	0,108	-0,113
-351,752	-200,000	0,001	0,046
-350,737	26,631	0,073	0,045
-349,723	800,000	0,024	-0,070
-348,708	-36,553	0,183	-0,072
-347,693	-142,855	-0,058	0,004
-346,679	-113,702	-0,092	0,013
-345,664	190,771	-0,102	-0,112
-344,650	-200,000	0,031	-0,127
-343,635	-40,132	0,063	0,024
-342,620	-200,000	-0,004	0,152
-341,606	-200,000	0,011	0,116
-340,591	-47,525	-0,025	0,009
-339,577	8,574	-0,039	-0,021
-338,562	-200,000	-0,022	-0,129
-337,548	136,346	-0,076	-0,073
-336,533	738,872	0,030	0,059
-335,518	305,420	0,068	0,093
-334,504	-145,725	0,089	-0,006
-333,489	800,000	-0,034	-0,091
-332,475	-200,000	0,031	0,109
-331,460	4,374	-0,009	0,005
-330,445	-106,132	-0,114	-0,018
-329,431	140,529	0,140	-0,135
-328,416	522,226	0,086	-0,149
-327,402	-200,000	-0,018	-0,072
-326,387	800,000	-0,019	-0,052
-325,372	21,198	0,060	0,035
-324,358	-78,899	-0,081	0,020
-323,343	84,459	-0,055	-0,044
-322,329	-40,617	-0,112	0,042
-321,314	88,314	0,102	0,082
-320,299	-200,000	-0,007	0,157
-319,285	20,057	0,056	0,033
-318,270	154,459	-0,115	-0,116
-317,256	153,412	-0,034	0,034
-316,241	800,000	-0,073	-0,160
-315,226	166,267	0,109	-0,112
-314,212	-79,008	-0,036	0,009
-313,197	-61,384	0,079	0,024
-312,183	31,163	0,079	0,049
-311,168	-75,333	-0,099	0,025
-310,153	-66,070	-0,101	0,029
-309,139	-47,117	0,152	-0,054
-308,124	-76,130	0,182	-0,047
-307,110	-136,402	-0,059	-0,005
-306,095	-11,679	-0,109	0,052
-305,080	800,000	-0,040	0,114
-304,066	308,032	-0,068	0,093
-303,051	284,563	0,034	0,045
-302,037	-200,000	-0,014	-0,066
-301,022	-23,483	0,069	0,030
-300,008	257,684	-0,035	0,044
-298,993	-200,000	0,018	0,081
-297,978	-46,168	0,095	-0,034
-296,964	415,001	0,088	0,136
-295,949	76,801	-0,054	-0,042
-294,935	800,000	0,031	0,085
-293,920	52,960	-0,085	-0,059
-292,905	-29,982	-0,026	-0,011
-291,891	-52,552	0,057	-0,019
-290,876	-47,821	0,081	-0,028
-289,862	-200,000	-0,010	0,071
-288,847	389,578	-0,117	-0,177
-287,832	217,121	0,070	-0,082
-286,818	-122,083	-0,116	-0,014
-285,803	107,048	0,086	0,075
-284,789	395,061	0,061	0,093
-283,774	-200,000	0,004	0,072
-282,759	12,730	-0,067	0,037
-281,745	78,711	-0,068	-0,053
-280,730	498,928	0,075	-0,126
-279,716	-19,075	-0,063	0,028
-278,701	-45,215	0,146	0,053
-277,686	-200,000	0,015	-0,058
-276,672	-200,000	0,041	-0,181
-275,657	-200,000	-0,033	0,133
-274,643	-200,000	0,035	-0,187
-273,628	-32,614	-0,027	0,011
-272,613	-70,103	-0,033	-0,009
-271,599	-93,476	-0,111	0,022
-270,584	-200,000	0,009	0,056
-269,570	-97,615	0,136	0,025
-268,555	-71,408	-0,074	-0,020
-267,540	174,873	-0,042	-0,044
-266,526	-200,000	-0,002	-0,111
-265,511	-200,000	-0,018	-0,215
-264,497	53,152	0,068	0,048
-263,482	-137,177	0,061	-0,005
-262,467	55,259	0,021	-0,015
-261,453	-200,000	-0,007	0,225
-260,438	121,460	-0,112	-0,102
-259,424	-81,885	0,130	-0,031
-258,409	-200,000	0,004	-0,138
-257,395	-200,000	-0,033	0,105
-256,380	120,645	-0,060	0,054
-255,365	-200,000	-0,007	-0,092
-254,351	14,234	-0,048	-0,027
-253,336	144,065	-0,032	-0,031
-252,322	33,081	0,016	-0,010
-251,307	398,248	0,023	-0,035
-250,292	29,124	0,092	0,057
-249,278	-76,910	-0,021	0,005
-248,263	-200,000	0,039	0,139
-247,249	-200,000	-0,007	0,169
-246,234	-106,024	-0,027	-0,004
-245,219	800,000	0,009	0,025
-244,205	-15,892	0,134	0,062
-243,190	29,025	0,078	-0,048
-242,176	468,801	-0,085	0,140
-241,161	-75,720	0,088	-0,023
-240,146	213,529	-0,073	0,084
-239,132	-200,000	-0,008	-0,037
-238,117	800,000	-0,049	-0,100
-237,103	398,866	-0,044	0,068
-236,088	56,367	0,079	0,056
-235,073	-40,080	0,079	-0,030
-234,059	-23,733	0,067	-0,029
-233,044	76,494	0,083	-0,064
-232,030	-96,258	-0,128	0,024
-231,015	-134,433	0,135	0,012
-230,000	-200,000	-0,005	0,020
-228,986	-64,147	0,120	0,035
-227,971	91,051	-0,095	0,077
-226,957	-200,000	-0,024	0,126
-225,942	205,537	-0,096	0,109
-224,927	6,824	-0,047	-0,025
-223,913	212,801	0,052	0,060
-222,898	57,965	-0,034	-0,024
-221,884	-9,702	-0,074	-0,036
-220,869	36,519	0,114	-0,073
-219,855	800,000	-0,060	0,135
-218,840	30,021	-0,071	-0,044
-217,825	-35,929	-0,120	-0,047
-216,811	-200,000	0,030	0,154
-215,796	-119,489	-0,105	0,013
-214,782	-65,590	-0,038	-0,011
-213,767	800,000	-0,037	-0,090
-212,752	502,042	-0,021	0,036
-211,738	44,130	-0,108	-0,072
-210,723	-67,862	0,098	0,028
-209,709	-175,935	0,145	-0,003
-208,694	179,746	-0,075	-0,080
-207,679	159,955	-0,071	-0,072
-206,665	288,814	0,056	-0,074
-205,650	6,380	-0,113	0,061
-204,636	-200,000	0,024	0,115
-203,621	-200,000	-0,010	0,070
-202,606	202,564	0,094	-0,105
-201,592	800,000	-0,026	0,081
-200,577	28,235	-0,031	0,019
-199,563	800,000	-0,011	0,033
-198,548	-200,000	0,001	0,043
-197,533	133,863	0,030	0,028
-196,519	-200,000	0,016	0,084
-195,504	-123,182	-0,042	0,005
-194,490	612,910	-0,005	0,009
-193,475	-200,000	-0,017	-0,093
-192,460	800,000	0,021	-0,043
-191,446	-200,000	0,007	0,089
-190,431	-60,885	0,061	-0,019
-189,417	-38,976	-0,088	-0,034
-188,402	124,902	-0,093	0,085
-187,387	441,760	0,099	0,158
-186,373	800,000	-0,031	-0,098
-185,358	-27,194	0,134	-0,057
-184,344	756,892	-0,085	0,168
-183,329	1,655	0,180	-0,094
-182,315	212,035	0,047	-0,054
-181,300	-140,220	-0,122	0,009
-180,285	800,000	-0,029	-0,070
-179,271	-200,000	-0,007	0,024
-178,256	16,347	-0,072	0,041
-177,242	259,886	0,083	0,104
-176,227	221,549	0,115	-0,134
-175,212	-200,000	0,005	-0,019
-174,198	-46,911	0,196	0,069
-173,183	233,250	0,014	0,017
-172,169	160,578	-0,112	0,114
-171,154	124,334	-0,070	0,064
-170,139	230,185	-0,060	0,071
-169,125	-57,149	0,064	0,020
-168,110	-29,895	0,083	0,034
-167,096	-97,261	0,041	0,008
-166,081	-32,984	-0,094	-0,038
-165,066	-77,826	-0,067	-0,017
-164,052	-100,386	-0,065	0,012
-163,037	66,218	-0,033	0,024
-162,023	-27,381	-0,199	0,083
-161,008	-120,139	0,087	-0,011
-159,993	60,645	-0,068	0,049
-158,979	179,021	-0,073	-0,078
-157,964	-97,509	-0,068	-0,013
-156,950	146,578	-0,047	0,046
-155,935	-114,480	0,006	0,001
-154,920	-80,776	0,118	0,028
-153,906	-31,539	-0,038	-0,015
-152,891	25,336	-0,044	-0,027
-151,877	175,360	-0,070	-0,074
-150,862	145,783	-0,055	0,053
-149,847	800,000	0,005	-0,015
-148,833	-3,775	0,081	0,041
-147,818	800,000	0,015	0,033
-146,804	-200,000	0,046	-0,202
-145,789	800,000	0,064	0,141
-144,775	506,835	0,045	-0,077
-143,760	-56,862	-0,139	-0,044
-142,745	797,270	0,018	-0,037
-141,731	596,004	0,028	-0,051
-140,716	206,932	-0,095	-0,108
-139,702	-200,000	-0,013	0,107
-138,687	800,000	-0,015	0,042
-137,672	800,000	0,083	-0,185
-136,658	-200,000	0,001	-0,041
-135,643	660,664	-0,014	0,026
-134,629	-106,687	0,052	-0,008
-133,614	-200,000	0,011	-0,039
-132,599	-124,338	0,123	-0,014
-131,585	-45,836	-0,103	0,037
-130,570	256,988	0,037	-0,046
-129,556	-132,905	-0,063	0,006
-128,541	281,081	-0,066	0,086
-127,526	-11,441	-0,059	-0,028
-126,512	103,009	0,110	0,094
-125,497	800,000	0,030	-0,094
-124,483	235,012	-0,082	0,098
-123,468	-200,000	-0,011	0,052
-122,453	614,355	-0,077	-0,140
-121,439	-200,000	0,014	0,122
-120,424	574,288	-0,057	-0,101
-119,410	-104,796	0,056	-0,009
