DTS Sentinel unit serial number:	SN410029Multiplexer serial number:	ORYXHardware model number:	OX2-SRSoftware version number:	ORYX F/W v4,00 Oryx Data Collector v3.7.2.0data status	okinstallation	B6 Nyhavnadifferential loss correction	single-endedforward channel	channel 2reverse channel	N/Adate	2023/12/07time	12:25:08forward acquisition time	300,00reverse acquisition time	0,00gamma	499,1914k internal	0,3202k external	0,3202temperature offset calibration	1,0000default loss term (dB/km)	0,3820temperature slope calibration	1,0000multiplexer offset coefficient	1,0000multiplexer slope coefficient	1,0000fibre end	0,00T internal ref (°C)	10,05T ext. ref 1 (°C)	-3,49T ext. ref 2 (°C)	-3,48length (m)	temperature (°C)	Stokes	anti-Stokes-744,400	-20,710	0,199	0,089
-743,385	-96,615	-0,362	-0,069
-742,371	154,542	0,079	0,079
-741,356	-153,891	-0,287	-0,014
-740,342	129,316	0,090	0,084
-739,327	-127,765	-0,309	-0,032
-738,312	-131,042	0,051	0,005
-737,298	-140,603	-0,399	-0,030
-736,283	22,737	0,140	0,083
-735,269	-83,233	-0,404	-0,093
-734,254	37,242	0,081	0,052
-733,239	-75,970	-0,457	-0,117
-732,225	-8,103	0,266	0,130
-731,210	-74,909	-0,108	0,028
-730,196	-200,000	-0,042	-0,152
-729,181	-70,039	-0,027	0,007
-728,167	-143,967	-0,041	-0,003
-727,152	57,682	-0,106	-0,075
-726,137	-49,100	-0,028	-0,010
-725,123	84,983	0,109	-0,086
-724,108	35,556	-0,107	-0,068
-723,094	-143,161	-0,121	0,008
-722,079	22,614	-0,028	-0,017
-721,064	-105,818	-0,111	0,018
-720,050	-29,036	0,100	-0,042
-719,035	-200,000	-0,025	0,170
-718,021	-200,000	0,023	0,090
-717,006	-62,903	-0,075	-0,023
-715,991	83,290	-0,017	0,013
-714,977	29,605	-0,094	0,058
-713,962	215,379	0,032	-0,036
-712,948	-200,000	0,018	0,104
-711,933	-140,459	-0,134	0,010
-710,918	378,817	-0,071	0,105
-709,904	-83,576	-0,060	0,014
-708,889	82,491	0,051	-0,040
-707,875	406,087	-0,053	-0,082
-706,860	202,813	-0,059	-0,066
-705,845	91,268	-0,095	0,078
-704,831	-21,980	0,006	-0,003
-703,816	-134,681	-0,150	-0,013
-702,802	800,000	-0,037	-0,114
-701,787	81,565	-0,082	-0,065
-700,772	-200,000	0,014	-0,089
-699,758	-200,000	-0,027	-0,158
-698,743	12,693	0,071	0,040
-697,729	-73,741	0,135	0,035
-696,714	-18,580	-0,070	-0,032
-695,699	-200,000	-0,018	-0,065
-694,685	800,000	0,045	-0,094
-693,670	79,622	-0,060	-0,046
-692,656	-200,000	0,005	0,065
-691,641	-200,000	-0,003	0,078
-690,627	-200,000	0,009	0,160
-689,612	-200,000	0,025	0,176
-688,597	-63,809	0,088	-0,026
-687,583	-66,587	0,112	0,032
-686,568	-200,000	0,005	-0,089
-685,554	274,667	-0,131	-0,169
-684,539	-19,573	-0,145	0,065
-683,524	-119,246	0,053	-0,007
-682,510	-200,000	0,001	-0,014
-681,495	286,263	-0,015	-0,019
-680,481	41,523	-0,032	-0,021
-679,466	385,886	-0,019	-0,028
-678,451	128,665	-0,095	-0,088
-677,437	95,745	0,067	0,056
-676,422	35,609	0,088	0,056
-675,408	-127,958	-0,097	0,010
-674,393	800,000	-0,025	0,060
-673,378	800,000	0,045	-0,119
-672,364	323,620	0,029	-0,041
-671,349	-3,200	-0,156	-0,078
-670,335	692,610	0,036	0,069
-669,320	148,819	0,028	-0,027
-668,305	-9,231	0,056	-0,027
-667,291	-101,141	-0,141	-0,025
-666,276	-197,842	0,036	0,000
-665,262	-70,142	-0,014	0,004
-664,247	253,393	0,034	-0,042
-663,232	63,563	-0,071	-0,052
-662,218	800,000	-0,036	0,106
-661,203	-200,000	0,010	0,061
-660,189	800,000	0,020	0,046
-659,174	158,600	0,063	-0,064
-658,159	276,021	0,021	0,027
-657,145	-12,577	0,067	-0,032
-656,130	393,115	-0,013	0,019
-655,116	-200,000	0,008	0,044
-654,101	-200,000	-0,015	0,145
-653,086	-5,287	-0,061	-0,030
-652,072	-200,000	-0,009	-0,122
-651,057	800,000	0,010	0,028
-650,043	86,845	-0,026	0,020
-649,028	-134,708	0,016	-0,001
-648,014	-28,130	-0,054	-0,022
-646,999	275,196	0,047	0,061
-645,984	-49,267	-0,071	-0,024
-644,970	-13,094	-0,056	-0,026
-643,955	-155,328	-0,101	0,005
-642,941	800,000	0,029	-0,075
-641,926	800,000	0,036	0,109
-640,911	-200,000	0,001	-0,136
-639,897	800,000	-0,031	0,089
-638,882	37,530	0,149	-0,096
-637,868	88,579	-0,063	0,050
-636,853	44,369	-0,123	-0,082
-635,838	-200,000	0,021	-0,129
-634,824	800,000	0,022	-0,061
-633,809	-167,604	-0,055	0,002
-632,795	338,675	-0,113	0,160
-631,780	-200,000	-0,006	-0,043
-630,765	124,376	0,090	-0,082
-629,751	153,231	0,104	0,103
-628,736	-200,000	-0,002	0,098
-627,722	-200,000	0,010	0,097
-626,707	173,901	0,144	0,150
-625,692	-57,539	0,050	0,016
-624,678	-200,000	-0,001	-0,025
-623,663	800,000	-0,031	0,096
-622,649	254,975	-0,085	0,105
-621,634	768,127	-0,046	-0,090
-620,619	-200,000	-0,018	0,101
-619,605	242,029	-0,057	-0,070
-618,590	-200,000	0,003	0,126
-617,576	352,929	0,044	0,063
-616,561	496,932	-0,050	-0,084
-615,546	800,000	-0,059	-0,131
-614,532	27,459	0,077	-0,047
-613,517	-200,000	-0,002	0,041
-612,503	116,459	-0,079	-0,070
-611,488	-24,740	0,084	-0,036
-610,474	-200,000	0,001	0,125
-609,459	-103,532	0,104	0,017
-608,444	800,000	0,018	0,046
-607,430	-200,000	0,020	-0,089
-606,415	-145,708	0,160	0,010
-605,401	-84,078	0,094	0,021
-604,386	-123,646	0,094	-0,011
-603,371	800,000	0,018	-0,053
-602,357	554,421	-0,037	0,064
-601,342	-0,063	-0,094	0,048
-600,328	426,243	-0,094	-0,147
-599,313	800,000	-0,067	-0,169
-598,298	290,260	0,023	0,030
-597,284	128,132	0,099	0,091
-596,269	-129,116	0,015	0,002
-595,255	522,951	0,087	0,149
-594,240	-66,002	-0,096	0,028
-593,225	136,318	0,033	-0,031
-592,211	-200,000	-0,040	-0,129
-591,196	157,778	-0,025	0,025
-590,182	-200,000	-0,004	-0,012
-589,167	23,218	-0,070	0,042
-588,152	-200,000	-0,046	0,160
-587,138	4,805	-0,089	0,047
-586,123	800,000	-0,023	0,058
-585,109	15,398	-0,068	0,039
-584,094	-45,235	0,173	0,062
-583,079	15,112	-0,037	-0,021
-582,065	-21,141	-0,151	-0,066
-581,050	104,714	0,037	0,031
-580,036	-187,504	0,140	0,001
-579,021	-144,077	-0,053	-0,004
-578,006	105,382	-0,132	-0,112
-576,992	57,356	-0,034	0,024
-575,977	107,566	-0,051	-0,044
-574,963	-200,000	-0,006	0,055
-573,948	308,940	0,095	0,129
-572,934	-95,047	0,085	0,016
-571,919	-200,000	-0,005	0,026
-570,904	20,583	-0,031	0,018
-569,890	-200,000	-0,001	-0,122
-568,875	-200,000	0,006	0,134
-567,861	-75,487	0,119	-0,030
-566,846	-200,000	-0,013	0,055
-565,831	237,647	0,033	0,040
-564,817	387,811	-0,017	-0,025
-563,802	-153,863	-0,129	-0,006
-562,788	-24,829	-0,025	-0,011
-561,773	800,000	-0,024	-0,068
-560,758	579,015	0,051	0,090
-559,744	12,998	0,094	0,052
-558,729	23,006	0,032	-0,019
-557,715	6,693	0,104	-0,055
-556,700	-171,432	-0,025	0,001
-555,685	318,341	0,022	-0,031
-554,671	282,785	-0,037	0,049
-553,656	-44,559	0,134	0,048
-552,642	-200,000	0,002	-0,040
-551,627	-200,000	0,016	0,077
-550,612	-200,000	0,014	-0,077
-549,598	-62,662	-0,095	-0,028
-548,583	330,062	-0,039	-0,054
-547,569	-65,493	0,038	0,011
-546,554	7,829	0,083	0,045
-545,539	526,397	0,042	-0,072
-544,525	229,642	-0,041	0,048
-543,510	-20,932	-0,210	-0,093
-542,496	-58,123	0,180	-0,056
-541,481	-200,000	-0,000	0,012
-540,466	-0,856	0,025	-0,013
-539,452	51,814	-0,078	0,053
-538,437	17,594	-0,076	-0,043
-537,423	298,068	-0,061	-0,082
-536,408	456,435	-0,077	-0,124
-535,393	-200,000	0,018	-0,081
-534,379	-200,000	-0,017	-0,124
-533,364	141,557	0,032	-0,030
-532,350	-4,064	-0,100	-0,050
-531,335	-200,000	0,026	0,144
-530,321	671,435	-0,031	-0,058
-529,306	-200,000	0,003	-0,055
-528,291	800,000	-0,044	-0,128
-527,277	612,834	-0,048	-0,088
-526,262	800,000	-0,047	0,115
-525,248	30,637	0,036	-0,022
-524,233	-39,996	0,055	0,021
-523,218	101,494	-0,033	0,028
-522,204	-65,182	-0,110	-0,032
-521,189	-52,169	-0,099	0,033
-520,175	-95,651	-0,104	-0,020
-519,160	12,807	-0,038	-0,021
-518,145	298,059	0,038	0,050
-517,131	-161,987	0,067	0,002
-516,116	330,726	0,083	-0,115
-515,102	102,422	-0,112	0,094
-514,087	118,650	0,064	0,057
-513,072	99,062	-0,073	0,061
-512,058	501,558	0,022	0,038
-511,043	18,103	-0,093	-0,053
-510,029	100,577	0,072	0,060
-509,014	-200,000	-0,003	-0,065
-507,999	800,000	-0,012	-0,024
-506,985	800,000	0,007	0,019
-505,970	599,103	-0,063	0,114
-504,956	800,000	0,018	0,058
-503,941	210,357	0,019	-0,022
-502,926	-54,506	0,144	0,047
-501,912	-49,865	0,099	0,034
-500,897	-200,000	-0,035	0,139
-499,883	86,165	-0,046	0,036
-498,868	14,335	-0,105	0,059
-497,853	-50,463	-0,031	-0,010
-496,839	497,881	0,025	-0,041
-495,824	514,128	0,020	-0,033
-494,810	800,000	-0,035	-0,085
-493,795	-123,677	0,118	-0,013
-492,781	-200,000	0,024	0,082
-491,766	-12,962	-0,111	-0,052
-490,751	-60,377	-0,205	-0,062
-489,737	351,517	-0,036	-0,052
-488,722	206,019	-0,040	-0,045
-487,708	-200,000	0,013	0,081
-486,693	-13,709	0,136	0,063
-485,678	232,709	-0,025	0,029
-484,664	800,000	-0,014	-0,030
-483,649	-200,000	0,000	0,055
-482,635	321,776	-0,006	0,008
-481,620	245,774	0,034	-0,041
-480,605	-20,559	0,037	-0,016
-479,591	39,667	0,121	0,078
-478,576	179,790	-0,090	-0,094
-477,562	621,228	0,081	-0,147
-476,547	112,042	-0,090	-0,078
-475,532	-200,000	-0,005	-0,060
-474,518	-200,000	0,009	0,089
-473,503	640,208	0,021	-0,039
-472,489	700,084	-0,011	-0,022
-471,474	-200,000	0,004	0,061
-470,459	263,499	0,019	-0,024
-469,445	152,809	-0,042	-0,041
-468,430	133,354	-0,025	-0,023
-467,416	-72,257	-0,038	-0,010
-466,401	-16,031	-0,082	-0,037
-465,386	-200,000	0,010	-0,057
-464,372	800,000	-0,072	-0,144
-463,357	25,354	-0,104	0,062
-462,343	34,630	-0,074	-0,047
-461,328	-200,000	-0,048	0,187
-460,313	3,500	0,172	0,090
-459,299	442,779	0,118	0,187
-458,284	213,152	0,055	0,062
-457,270	-200,000	0,008	-0,035
-456,255	-6,745	-0,169	0,083
-455,241	-200,000	0,021	-0,152
-454,226	-200,000	-0,048	-0,156
-453,211	-64,950	-0,077	-0,022
-452,197	-200,000	0,019	-0,186
-451,182	-200,000	0,011	-0,064
-450,168	-200,000	-0,015	-0,112
-449,153	47,626	0,079	-0,053
-448,138	45,185	-0,052	0,035
-447,124	-113,926	-0,029	0,004
-446,109	-200,000	-0,023	0,113
-445,095	-14,196	0,115	0,053
-444,080	-16,972	0,068	0,031
-443,065	-200,000	0,011	-0,133
-442,051	-64,330	0,068	0,020
-441,036	385,125	0,061	-0,090
-440,022	-31,667	0,054	-0,022
-439,007	-200,000	0,027	-0,213
-437,992	240,634	0,047	-0,056
-436,978	116,389	-0,067	0,059
-435,963	-200,000	0,001	-0,011
-434,949	450,204	-0,036	0,057
-433,934	-200,000	-0,009	0,089
-432,919	-200,000	-0,022	-0,110
-431,905	-69,772	-0,087	-0,024
-430,890	167,768	0,061	0,062
-429,876	800,000	-0,055	-0,111
-428,861	54,547	-0,034	-0,023
-427,846	446,240	-0,014	0,021
-426,832	-200,000	0,006	-0,063
-425,817	-200,000	0,012	-0,050
-424,803	-88,646	0,040	0,008
-423,788	671,644	0,028	-0,052
-422,773	-200,000	-0,025	-0,140
-421,759	236,053	0,033	0,040
-420,744	-46,250	-0,130	0,046
-419,730	145,573	0,057	-0,055
-418,715	-67,134	-0,171	-0,048
-417,701	800,000	0,043	0,117
-416,686	274,774	0,045	0,057
-415,671	-165,548	-0,039	0,001
-414,657	28,155	-0,092	0,056
-413,642	800,000	0,059	-0,137
-412,628	106,212	-0,041	0,035
-411,613	-26,693	0,049	0,021
-410,598	92,284	0,054	0,044
-409,584	-200,000	-0,004	0,055
-408,569	800,000	0,055	0,137
-407,555	-46,611	0,030	-0,010
-406,540	66,343	0,090	0,066
-405,525	-121,806	0,085	-0,010
-404,511	8,429	-0,156	0,084
-403,496	208,823	-0,013	0,015
-402,482	225,557	0,060	0,070
-401,467	-58,820	-0,041	-0,013
-400,452	619,583	0,086	0,155
-399,438	-131,042	0,117	0,011
-398,423	-200,000	-0,011	0,060
-397,409	82,736	-0,095	-0,074
-396,394	-91,516	-0,086	0,017
-395,379	-83,239	0,081	-0,019
-394,365	-46,418	-0,123	-0,043
-393,350	652,745	0,024	0,045
-392,336	-200,000	0,010	0,087
-391,321	-200,000	0,005	-0,140
-390,306	-200,000	-0,011	-0,078
-389,292	128,735	-0,120	-0,109
-388,277	-200,000	0,011	0,100
-387,263	527,278	0,059	0,100
-386,248	58,716	0,118	-0,083
-385,233	-98,151	-0,043	0,008
-384,219	52,160	0,037	0,025
-383,204	-23,506	-0,057	-0,024
-382,190	106,099	-0,035	-0,030
-381,175	800,000	0,053	0,140
-380,160	-156,756	-0,078	0,003
-379,146	119,037	0,155	0,138
-378,131	364,298	-0,046	0,067
-377,117	-30,253	-0,048	0,019
-376,102	800,000	0,040	0,087
-375,088	-51,224	-0,037	0,012
-374,073	-160,089	-0,103	-0,004
-373,058	-23,626	0,197	0,084
-372,044	741,364	-0,048	0,094
-371,029	60,213	0,115	0,081
-370,015	-68,541	0,084	0,023
-369,000	84,994	0,087	-0,069
-367,985	338,335	0,084	0,117
-366,971	756,956	0,035	0,068
-365,956	45,440	-0,031	0,021
-364,942	800,000	0,045	0,110
-363,927	52,764	0,138	0,094
-362,912	800,000	0,034	-0,093
-361,898	395,346	-0,043	0,065
-360,883	-195,429	-0,108	0,001
-359,869	597,655	-0,121	-0,215
-358,854	37,444	-0,088	-0,056
-357,839	800,000	0,017	0,040
-356,825	-85,768	-0,029	0,006
-355,810	-170,322	0,182	-0,004
-354,796	-200,000	0,005	-0,061
-353,781	128,650	-0,102	0,093
-352,766	-43,261	-0,058	-0,021
-351,752	419,589	-0,036	-0,056
-350,737	8,225	0,052	-0,028
-349,723	-200,000	0,003	0,076
-348,708	508,999	-0,051	0,085
-347,693	440,434	-0,040	-0,063
-346,679	-200,000	0,002	0,140
-345,664	463,176	-0,047	-0,075
-344,650	66,861	-0,029	0,021
-343,635	584,803	0,022	-0,039
-342,620	-200,000	-0,008	-0,110
-341,606	540,673	-0,030	-0,051
-340,591	140,513	0,053	-0,050
-339,577	116,129	0,046	-0,040
-338,562	44,574	-0,035	0,023
-337,548	-27,224	0,082	0,034
-336,533	-200,000	0,033	-0,134
-335,518	-68,633	-0,119	-0,033
-334,504	-98,548	-0,033	0,006
-333,489	-92,579	0,088	-0,017
-332,475	800,000	-0,042	-0,113
-331,460	72,272	-0,046	-0,034
-330,445	-51,391	0,150	-0,050
-329,431	-146,595	0,036	-0,002
-328,416	-200,000	0,000	-0,008
-327,402	-177,222	0,077	0,001
-326,387	-118,665	-0,101	0,013
-325,372	581,968	-0,028	-0,049
-324,358	614,027	0,052	-0,093
-323,343	-137,725	0,055	-0,004
-322,329	184,581	-0,048	0,051
-321,314	-75,207	-0,118	-0,030
-320,299	34,880	-0,074	0,046
-319,285	770,852	0,059	-0,115
-318,270	473,689	0,059	-0,096
-317,256	-70,179	-0,165	0,045
-316,241	800,000	-0,017	0,053
-315,226	800,000	0,027	-0,061
-314,212	-111,765	-0,048	0,007
-313,197	311,323	-0,067	-0,090
-312,183	800,000	0,058	0,140
-311,168	-200,000	0,013	-0,046
-310,153	-122,587	-0,076	0,009
-309,139	800,000	0,092	0,199
-308,124	-124,834	0,110	0,012
-307,110	-67,975	0,089	0,025
-306,095	800,000	-0,012	0,028
-305,080	256,869	0,039	-0,048
-304,066	-200,000	0,001	0,021
-303,051	193,348	-0,049	0,053
-302,037	152,866	0,082	-0,080
-301,022	800,000	-0,038	0,097
-300,008	-200,000	-0,011	0,153
-298,993	234,326	-0,056	-0,066
-297,978	-200,000	0,005	0,087
-296,964	-123,292	0,025	0,003
-295,949	-82,686	-0,112	0,026
-294,935	117,886	0,018	-0,016
-293,920	291,259	0,018	0,023
-292,905	369,738	0,046	-0,067
-291,891	-26,108	0,126	0,053
-290,876	9,669	-0,027	0,015
-289,862	-200,000	-0,011	-0,067
-288,847	800,000	-0,037	-0,089
-287,832	-200,000	0,004	0,100
-286,818	-118,682	0,052	0,007
-285,803	-48,338	0,135	0,046
-284,789	-73,011	0,138	-0,036
-283,774	-13,053	-0,063	-0,029
-282,759	132,402	-0,049	-0,046
-281,745	-90,628	-0,048	-0,010
-280,730	587,756	0,011	0,020
-279,716	97,009	-0,166	0,136
-278,701	494,883	-0,024	-0,039
-277,686	-54,068	0,022	0,007
-276,672	-17,461	-0,089	0,040
-275,657	301,079	-0,027	0,035
-274,643	-36,510	-0,045	0,017
-273,628	190,915	-0,098	0,106
-272,613	294,227	0,028	0,036
-271,599	-68,094	0,189	-0,052
-270,584	153,365	0,027	0,027
-269,570	119,259	-0,021	-0,018
-268,555	-200,000	-0,035	0,215
-267,540	-76,244	-0,041	0,010
-266,526	-200,000	-0,006	0,030
-265,511	800,000	0,048	-0,111
-264,497	-108,488	-0,106	-0,016
-263,482	335,270	0,046	0,064
-262,467	4,260	0,067	-0,035
-261,453	-200,000	0,016	-0,081
-260,438	-200,000	0,012	-0,126
-259,424	-65,864	0,071	0,020
-258,409	189,099	0,144	-0,154
-257,395	-200,000	0,023	0,100
-256,380	-200,000	-0,016	0,063
-255,365	302,945	0,107	0,142
-254,351	34,409	-0,046	0,028
-253,336	36,121	-0,054	-0,034
-252,322	-200,000	0,012	0,099
-251,307	-200,000	-0,003	0,042
-250,292	-200,000	-0,022	-0,099
-249,278	800,000	0,027	0,069
-248,263	-48,499	0,077	-0,026
-247,249	-200,000	-0,029	0,166
-246,234	504,236	0,053	-0,088
-245,219	492,510	-0,026	-0,042
-244,205	-200,000	-0,017	-0,093
-243,190	-200,000	-0,009	0,034
-242,176	-89,037	0,113	0,024
-241,161	-127,293	0,030	-0,003
-240,146	-16,998	0,067	-0,030
-239,132	-34,387	-0,091	0,035
-238,117	-13,774	-0,082	0,038
-237,103	-88,482	-0,116	-0,024
-236,088	-163,687	0,015	-0,000
-235,073	66,442	-0,105	-0,076
-234,059	-5,794	0,141	-0,069
-233,044	476,434	-0,067	0,108
-232,030	125,884	0,085	-0,077
-231,015	11,634	0,032	-0,017
-230,000	23,113	-0,105	0,061
-228,986	800,000	0,017	-0,052
-227,971	252,102	0,060	0,073
-226,957	-200,000	0,008	-0,115
-225,942	-200,000	0,021	-0,083
-224,927	-88,960	0,169	-0,035
-223,913	84,100	0,077	-0,060
-222,898	-117,792	-0,042	-0,005
-221,884	191,080	0,020	0,021
-220,869	-153,188	0,099	-0,005
-219,855	697,887	0,032	-0,060
-218,840	-200,000	-0,003	0,098
-217,825	800,000	-0,024	0,069
-216,811	1,892	-0,091	0,046
-215,796	262,062	-0,094	-0,116
-214,782	353,553	0,024	0,034
-213,767	40,546	0,101	0,065
-212,752	-176,330	0,090	0,002
-211,738	800,000	-0,029	-0,079
-210,723	-174,393	0,109	0,002
-209,709	800,000	-0,022	0,060
-208,694	324,973	-0,097	-0,132
-207,679	-105,095	0,044	-0,007
-206,665	512,784	0,029	0,048
-205,650	-29,159	-0,073	0,030
-204,636	-133,390	-0,028	0,003
-203,621	42,638	-0,058	-0,038
-202,606	108,553	0,083	-0,070
-201,592	128,673	-0,072	0,065
-200,577	800,000	0,034	0,078
-199,563	-200,000	-0,052	-0,209
-198,548	-200,000	-0,003	0,094
-197,533	-196,921	0,105	0,000
-196,519	-200,000	-0,024	-0,107
-195,504	-138,201	-0,070	-0,005
-194,490	-12,177	0,044	0,021
-193,475	156,799	-0,082	-0,081
-192,460	241,016	-0,088	0,105
-191,446	800,000	-0,011	0,026
-190,431	800,000	0,051	0,106
-189,417	-200,000	-0,004	0,014
-188,402	-179,862	0,057	-0,001
-187,387	210,043	-0,012	0,014
-186,373	-48,285	-0,113	-0,039
-185,358	-200,000	0,013	0,102
-184,344	-200,000	-0,004	0,055
-183,329	618,771	-0,048	0,086
-182,315	-200,000	0,005	-0,017
-181,300	-198,099	0,037	0,000
-180,285	75,402	0,032	-0,024
-179,271	-23,610	0,087	-0,037
-178,256	800,000	-0,032	-0,099
-177,242	800,000	-0,008	-0,016
-176,227	339,410	0,090	-0,125
-175,212	-200,000	0,005	0,088
-174,198	61,299	0,035	-0,025
-173,183	-139,796	0,074	-0,005
-172,169	-81,417	-0,129	0,030
-171,154	358,563	0,080	-0,114
-170,139	280,158	0,072	-0,092
-169,125	-108,504	-0,053	-0,008
-168,110	-200,000	-0,004	0,054
-167,096	35,706	-0,171	0,107
-166,081	248,837	-0,090	-0,108
-165,066	-200,000	0,007	0,048
-164,052	-200,000	-0,018	-0,076
-163,037	43,004	-0,065	0,042
-162,023	6,198	-0,178	-0,093
-161,008	-200,000	0,000	-0,053
-159,993	5,900	0,152	-0,080
-158,979	318,543	-0,039	0,052
-157,964	-139,104	-0,104	0,008
-156,950	-101,983	0,130	-0,022
-155,935	-20,038	-0,101	0,044
-154,920	800,000	0,041	-0,088
-153,906	15,923	0,113	-0,063
-152,891	-46,158	0,107	0,037
-151,877	-126,891	-0,099	-0,010
-150,862	130,312	-0,104	-0,094
-149,847	-200,000	-0,001	-0,182
-148,833	-5,041	0,069	0,034
-147,818	-200,000	0,008	-0,067
-146,804	800,000	0,049	0,115
-145,789	5,085	-0,032	-0,017
-144,775	-137,621	-0,065	-0,005
-143,760	32,720	0,079	-0,048
-142,745	-122,846	0,083	-0,009
-141,731	-200,000	-0,010	-0,075
-140,716	-200,000	0,008	-0,057
-139,702	474,226	0,022	0,035
-138,687	800,000	0,025	0,051
-137,672	570,060	0,096	0,167
-136,658	254,818	0,084	-0,102
-135,643	210,881	-0,052	0,058
-134,629	7,527	-0,098	-0,052
-133,614	8,423	0,073	-0,039
-132,599	-106,251	-0,132	0,021
-131,585	-118,441	0,103	0,013
-130,570	751,374	0,056	0,107
-129,556	-68,610	-0,136	0,037
-128,541	-200,000	0,001	0,004
-127,526	393,757	0,076	-0,113
-126,512	494,830	-0,044	0,072
-125,497	722,797	-0,066	0,125
-124,483	-200,000	0,001	-0,076
-123,468	24,954	-0,143	0,084
-122,453	800,000	-0,087	-0,193
-121,439	-31,609	-0,117	0,046
-120,424	-53,477	-0,141	-0,046
-119,410	106,903	0,082	-0,069
-118,395	146,769	0,041	-0,039
