DTS Sentinel unit serial number:	SN410029Multiplexer serial number:	ORYXHardware model number:	OX2-SRSoftware version number:	ORYX F/W v4,00 Oryx Data Collector v3.7.2.0data status	okinstallation	B6 Nyhavnadifferential loss correction	single-endedforward channel	channel 2reverse channel	N/Adate	2023/12/10time	02:35:08forward acquisition time	300,00reverse acquisition time	0,00gamma	499,1914k internal	0,3125k external	0,3125temperature offset calibration	1,0000default loss term (dB/km)	0,3820temperature slope calibration	1,0000multiplexer offset coefficient	1,0000multiplexer slope coefficient	1,0000fibre end	0,00T internal ref (°C)	21,95T ext. ref 1 (°C)	5,79T ext. ref 2 (°C)	5,76length (m)	temperature (°C)	Stokes	anti-Stokes-744,400	70,993	0,092	-0,071
-743,385	-82,867	-0,271	0,065
-742,371	800,000	-0,012	-0,037
-741,356	-64,791	-0,281	0,084
-740,342	24,315	-0,067	-0,041
-739,327	-104,597	-0,200	0,034
-738,312	91,235	-0,050	-0,042
-737,298	93,452	-0,190	0,160
-736,283	-43,829	0,238	0,089
-735,269	-93,261	-0,182	-0,037
-734,254	-127,768	0,108	-0,011
-733,239	-119,965	-0,391	-0,049
-732,225	224,032	0,145	0,175
-731,210	-200,000	-0,050	0,206
-730,196	173,983	-0,075	-0,081
-729,181	-200,000	0,021	-0,143
-728,167	-55,066	0,121	0,040
-727,152	-112,805	0,039	0,006
-726,137	-114,433	-0,100	-0,014
-725,123	6,811	-0,084	-0,046
-724,108	200,069	-0,058	-0,066
-723,094	-147,144	-0,159	-0,010
-722,079	303,845	0,044	-0,061
-721,064	800,000	0,052	-0,134
-720,050	-96,720	-0,115	-0,022
-719,035	104,447	-0,079	-0,069
-718,021	187,752	0,018	0,020
-717,006	-89,839	-0,075	0,016
-715,991	141,545	-0,105	-0,104
-714,977	-200,000	0,026	-0,126
-713,962	67,846	0,057	0,043
-712,948	-200,000	-0,007	-0,034
-711,933	-200,000	0,011	0,039
-710,918	-200,000	-0,002	-0,037
-709,904	49,638	-0,043	0,030
-708,889	106,591	0,091	0,080
-707,875	231,731	-0,129	-0,158
-706,860	-200,000	-0,003	-0,031
-705,845	304,728	0,051	-0,071
-704,831	-200,000	0,002	0,040
-703,816	3,900	-0,082	0,044
-702,802	-121,272	0,136	0,017
-701,787	102,899	-0,118	0,102
-700,772	365,270	0,149	-0,224
-699,758	800,000	0,083	-0,203
-698,743	800,000	0,026	-0,070
-697,729	-135,036	0,079	-0,007
-696,714	-135,102	0,063	-0,006
-695,699	-135,554	-0,154	-0,013
-694,685	-49,177	-0,027	-0,010
-693,670	-148,569	0,052	0,003
-692,656	800,000	0,040	-0,092
-691,641	210,902	0,009	0,011
-690,627	-200,000	-0,001	0,085
-689,612	-78,718	0,038	0,010
-688,597	-147,867	-0,056	0,003
-687,583	-200,000	-0,054	-0,210
-686,568	-200,000	-0,024	-0,096
-685,554	-200,000	-0,001	-0,065
-684,539	-200,000	0,011	0,115
-683,524	800,000	0,029	0,070
-682,510	800,000	-0,020	0,063
-681,495	44,447	-0,097	-0,066
-680,481	190,864	-0,075	-0,084
-679,466	272,278	-0,125	-0,164
-678,451	350,087	0,040	-0,059
-677,437	57,695	0,073	0,053
-676,422	-200,000	0,007	-0,126
-675,408	-140,126	0,015	-0,001
-674,393	-200,000	0,006	0,111
-673,378	740,345	-0,038	-0,076
-672,364	800,000	-0,046	-0,142
-671,349	141,107	0,008	-0,008
-670,335	501,328	-0,054	0,093
-669,320	210,518	0,030	0,035
-668,305	320,206	0,028	0,040
-667,291	98,781	-0,065	-0,055
-666,276	-200,000	-0,040	-0,147
-665,262	-200,000	0,001	0,012
-664,247	-154,927	0,066	-0,003
-663,232	188,956	-0,039	-0,044
-662,218	-121,757	0,028	0,003
-661,203	-186,559	-0,053	-0,001
-660,189	-46,911	-0,060	0,022
-659,174	593,231	0,090	-0,165
-658,159	-200,000	0,004	-0,082
-657,145	800,000	-0,035	-0,083
-656,130	51,148	-0,111	0,078
-655,116	800,000	-0,007	0,021
-654,101	-33,709	0,045	-0,018
-653,086	-200,000	-0,006	0,082
-652,072	-200,000	-0,003	0,039
-651,057	-158,837	-0,130	-0,005
-650,043	7,718	0,105	0,058
-649,028	800,000	0,032	0,068
-648,014	-200,000	-0,001	0,084
-646,999	-128,748	-0,142	-0,015
-645,984	800,000	-0,055	-0,115
-644,970	100,005	0,048	-0,041
-643,955	35,132	-0,104	-0,068
-642,941	371,186	-0,054	-0,082
-641,926	800,000	0,080	-0,176
-640,911	800,000	0,060	-0,125
-639,897	800,000	0,008	-0,024
-638,882	286,885	0,079	-0,106
-637,868	-132,825	0,192	0,018
-636,853	-37,993	-0,067	0,026
-635,838	198,960	-0,050	-0,057
-634,824	-200,000	-0,042	0,140
-633,809	-96,621	0,060	0,012
-632,795	-200,000	0,006	-0,134
-631,780	800,000	0,034	-0,072
-630,765	-17,620	-0,128	-0,059
-629,751	-200,000	-0,003	-0,072
-628,736	-100,938	-0,033	0,006
-627,722	164,985	0,046	0,048
-626,707	9,220	0,025	-0,014
-625,692	-157,437	0,024	0,001
-624,678	-200,000	0,024	0,084
-623,663	308,078	-0,078	-0,109
-622,649	-122,072	0,118	0,014
-621,634	684,621	0,027	-0,052
-620,619	-200,000	0,007	-0,077
-619,605	73,934	0,047	-0,037
-618,590	-144,328	-0,089	-0,006
-617,576	129,196	0,039	-0,037
-616,561	91,260	0,014	-0,012
-615,546	-137,827	0,045	0,004
-614,532	236,766	0,093	0,114
-613,517	69,813	0,030	0,023
-612,503	-200,000	0,014	0,099
-611,488	-200,000	-0,015	-0,132
-610,474	-103,957	-0,068	0,012
-609,459	548,941	0,011	0,020
-608,444	-53,854	-0,132	-0,044
-607,430	-200,000	-0,022	-0,129
-606,415	419,023	0,017	0,027
-605,401	-76,729	-0,054	-0,014
-604,386	-166,761	0,036	-0,001
-603,371	-200,000	0,034	0,141
-602,357	-49,963	-0,115	-0,040
-601,342	-97,251	-0,054	0,010
-600,328	-0,901	-0,065	-0,034
-599,313	-200,000	0,029	-0,099
-598,298	14,953	-0,063	0,036
-597,284	-76,887	0,066	-0,017
-596,269	-56,089	0,063	0,021
-595,255	136,348	-0,079	0,076
-594,240	-72,989	-0,178	0,048
-593,225	800,000	0,036	0,078
-592,211	741,049	0,046	-0,092
-591,196	35,045	-0,097	-0,063
-590,182	476,100	0,007	0,012
-589,167	-11,696	0,112	-0,054
-588,152	-46,033	-0,071	-0,026
-587,138	-200,000	0,014	-0,069
-586,123	-107,095	-0,046	-0,007
-585,109	800,000	-0,064	-0,184
-584,094	-56,432	-0,073	-0,024
-583,079	800,000	-0,038	0,087
-582,065	-200,000	0,016	0,113
-581,050	-200,000	0,005	0,116
-580,036	-200,000	-0,023	-0,105
-579,021	-139,220	-0,135	-0,011
-578,006	800,000	-0,021	-0,052
-576,992	7,634	-0,068	0,038
-575,977	147,658	-0,035	-0,035
-574,963	-88,915	0,147	-0,032
-573,948	226,193	0,056	0,067
-572,934	104,092	-0,071	0,062
-571,919	-90,196	-0,086	-0,018
-570,904	728,495	-0,048	-0,095
-569,890	687,512	0,092	-0,179
-568,875	800,000	0,057	0,129
-567,861	438,603	0,017	-0,028
-566,846	133,339	-0,033	-0,032
-565,831	-200,000	-0,019	0,103
-564,817	209,635	0,100	-0,116
-563,802	48,418	-0,050	-0,035
-562,788	328,357	-0,035	0,049
-561,773	-138,767	-0,118	-0,009
-560,758	419,853	0,074	0,117
-559,744	-200,000	0,014	-0,064
-558,729	-148,069	-0,084	-0,005
-557,715	-120,825	-0,053	0,006
-556,700	-200,000	0,002	-0,100
-555,685	277,413	-0,024	0,032
-554,671	-46,870	-0,084	0,030
-553,656	-121,048	0,042	0,005
-552,642	320,350	-0,006	0,008
-551,627	-122,753	0,107	0,013
-550,612	-78,607	-0,154	0,039
-549,598	800,000	-0,061	-0,137
-548,583	157,665	-0,047	-0,048
-547,569	46,748	0,066	-0,045
-546,554	178,297	0,036	-0,039
-545,539	-200,000	0,014	0,057
-544,525	-117,760	-0,108	0,014
-543,510	1,822	-0,049	-0,026
-542,496	308,280	-0,090	-0,125
-541,481	113,290	0,071	0,064
-540,466	168,560	0,071	-0,075
-539,452	-97,333	0,106	-0,020
-538,437	361,656	0,086	0,128
-537,423	651,902	0,034	0,064
-536,408	-200,000	0,033	-0,140
-535,393	-103,995	-0,053	-0,009
-534,379	329,033	-0,057	0,081
-533,364	-54,462	-0,111	-0,037
-532,350	7,199	0,049	-0,027
-531,335	-53,691	-0,057	-0,019
-530,321	516,384	0,051	0,089
-529,306	-200,000	0,011	0,094
-528,291	-58,130	-0,076	0,024
-527,277	-200,000	0,004	-0,098
-526,262	-200,000	0,016	-0,053
-525,248	-200,000	-0,046	-0,164
-524,233	-2,913	0,109	-0,056
-523,218	507,094	0,013	0,022
-522,204	-200,000	0,016	-0,090
-521,189	76,027	-0,054	0,042
-520,175	-61,631	-0,116	-0,036
-519,160	-116,860	-0,057	-0,008
-518,145	-120,251	0,160	-0,020
-517,131	-120,174	-0,106	0,013
-516,116	-200,000	0,034	0,151
-515,102	426,737	-0,052	0,084
-514,087	800,000	-0,028	-0,059
-513,072	-21,776	-0,101	-0,045
-512,058	558,442	-0,058	-0,104
-511,043	385,266	-0,051	-0,079
-510,029	800,000	0,037	0,097
-509,014	259,200	0,111	-0,141
-507,999	645,740	-0,101	-0,191
-506,985	-200,000	0,018	0,077
-505,970	202,433	-0,070	-0,080
-504,956	182,829	-0,108	-0,118
-503,941	-200,000	-0,014	0,061
-502,926	-131,113	0,118	-0,011
-501,912	27,610	-0,113	0,070
-500,897	-117,436	0,066	0,009
-499,883	800,000	-0,044	-0,108
-498,868	107,477	-0,085	-0,074
-497,853	-200,000	0,051	-0,210
-496,839	-72,457	0,072	0,020
-495,824	-200,000	0,027	0,089
-494,810	-200,000	-0,014	0,065
-493,795	-200,000	-0,001	0,121
-492,781	36,422	-0,111	-0,072
-491,766	-60,272	-0,061	0,019
-490,751	468,556	0,017	0,028
-489,737	-155,381	-0,113	-0,005
-488,722	227,307	0,110	-0,132
-487,708	28,700	0,100	-0,063
-486,693	253,379	0,033	0,042
-485,678	-200,000	-0,017	-0,066
-484,664	-200,000	-0,025	-0,255
-483,649	430,323	-0,081	-0,130
-482,635	617,022	0,048	-0,089
-481,620	-73,524	0,147	0,039
-480,605	-111,709	-0,106	0,016
-479,591	-200,000	0,022	0,097
-478,576	214,647	0,084	-0,099
-477,562	-82,344	-0,114	0,027
-476,547	-66,136	-0,056	-0,016
-475,532	800,000	0,034	-0,085
-474,518	-200,000	0,007	-0,067
-473,503	-145,471	0,167	0,011
-472,489	-69,042	-0,043	-0,012
-471,474	110,595	-0,062	0,055
-470,459	-69,666	0,082	0,023
-469,445	88,332	-0,041	-0,034
-468,430	-62,752	0,081	-0,025
-467,416	484,081	-0,036	-0,060
-466,401	800,000	-0,033	-0,093
-465,386	-51,006	0,099	0,034
-464,372	188,598	-0,067	0,074
-463,357	-152,619	0,066	0,003
-462,343	99,026	0,070	0,059
-461,328	188,079	0,111	-0,122
-460,313	-91,824	0,031	0,006
-459,299	-200,000	-0,030	0,113
-458,284	345,391	0,086	0,125
-457,270	-126,956	-0,139	0,015
-456,255	8,638	-0,168	-0,093
-455,241	800,000	-0,038	-0,099
-454,226	203,694	0,026	-0,029
-453,211	181,651	0,049	-0,053
-452,197	800,000	0,008	0,017
-451,182	50,920	-0,082	0,057
-450,168	143,182	-0,032	0,031
-449,153	-31,712	-0,141	-0,058
-448,138	-181,426	-0,092	0,001
-447,124	-200,000	0,009	-0,114
-446,109	-200,000	-0,006	0,029
-445,095	-59,943	-0,087	0,027
-444,080	259,130	-0,060	0,076
-443,065	800,000	0,061	0,169
-442,051	199,640	-0,086	-0,097
-441,036	-173,117	0,043	0,001
-440,022	95,142	0,044	0,036
-439,007	800,000	-0,038	-0,087
-437,992	235,087	0,060	0,072
-436,978	-22,305	0,046	-0,020
-435,963	298,092	-0,074	0,100
-434,949	170,942	0,083	0,088
-433,934	-200,000	-0,003	-0,150
-432,919	-193,667	0,121	0,001
-431,905	5,916	0,107	0,058
-430,890	-48,705	0,054	-0,019
-429,876	-200,000	0,025	0,096
-428,861	-13,359	0,009	0,004
-427,846	97,674	-0,113	0,096
-426,832	321,149	-0,057	-0,079
-425,817	800,000	-0,053	-0,161
-424,803	-200,000	-0,016	0,104
-423,788	-159,221	0,042	0,002
-422,773	6,020	0,024	0,013
-421,759	103,852	0,074	-0,064
-420,744	5,475	-0,129	0,070
-419,730	212,649	-0,103	-0,120
-418,715	-144,191	-0,064	-0,004
-417,701	-200,000	-0,005	0,107
-416,686	-5,000	0,093	0,047
-415,671	-200,000	0,026	-0,090
-414,657	-69,414	-0,108	-0,030
-413,642	456,180	-0,070	0,115
-412,628	-200,000	-0,005	0,065
-411,613	-200,000	0,009	-0,042
-410,598	-104,218	-0,131	0,022
-409,584	433,576	0,029	0,047
-408,569	-97,811	0,069	0,013
-407,555	-4,240	0,088	0,044
-406,540	-75,559	0,100	-0,026
-405,525	-200,000	-0,009	0,072
-404,511	217,774	-0,053	-0,062
-403,496	-200,000	0,012	-0,124
-402,482	800,000	-0,016	0,049
-401,467	258,744	-0,016	-0,020
-400,452	800,000	0,033	0,070
-399,438	-200,000	-0,004	0,052
-398,423	-200,000	0,001	0,050
-397,409	135,821	0,084	-0,081
-396,394	-101,534	-0,179	-0,032
-395,379	41,441	0,044	-0,029
-394,365	-5,600	0,151	0,076
-393,350	-111,178	0,116	-0,017
-392,336	-155,896	0,080	0,004
-391,321	80,129	-0,019	0,015
-390,306	-200,000	0,007	0,075
-389,292	800,000	-0,032	-0,084
-388,277	-200,000	0,010	-0,035
-387,263	89,980	-0,052	-0,043
-386,248	-57,141	-0,028	-0,009
-385,233	199,263	-0,007	0,008
-384,219	-46,290	-0,060	-0,022
-383,204	105,048	0,093	0,081
-382,190	323,676	-0,058	-0,082
-381,175	121,763	0,099	-0,091
-380,160	1,424	0,116	-0,061
-379,146	101,900	0,073	0,062
-378,131	-59,333	-0,134	0,042
-377,117	-49,674	-0,081	-0,028
-376,102	-121,917	-0,044	-0,005
-375,088	-125,399	-0,041	0,005
-374,073	128,454	0,037	-0,035
-373,058	-93,610	-0,112	-0,022
-372,044	800,000	-0,012	-0,035
-371,029	744,423	0,089	0,177
-370,015	-105,796	0,120	0,020
-369,000	-119,500	-0,067	0,008
-367,985	135,533	0,035	-0,033
-366,971	-27,523	0,058	-0,025
-365,956	0,461	0,094	-0,049
-364,942	299,202	-0,050	0,068
-363,927	-152,091	0,179	-0,009
-362,912	-150,477	-0,113	-0,006
-361,898	-28,415	-0,061	-0,026
-360,883	364,469	-0,046	-0,068
-359,869	-20,249	-0,092	-0,041
-358,854	11,250	0,034	-0,019
-357,839	-200,000	-0,011	0,104
-356,825	-100,292	-0,055	0,010
-355,810	236,805	0,108	0,131
-354,796	800,000	0,024	-0,066
-353,781	-200,000	0,006	0,051
-352,766	800,000	0,019	0,045
-351,752	-142,429	0,120	0,009
-350,737	-200,000	0,025	-0,100
-349,723	167,875	-0,077	0,080
-348,708	1,041	0,178	-0,094
-347,693	800,000	0,054	-0,125
-346,679	619,752	-0,099	-0,183
-345,664	800,000	-0,057	-0,135
-344,650	-124,944	0,025	-0,003
-343,635	136,744	0,110	0,105
-342,620	359,726	0,030	0,044
-341,606	-200,000	-0,005	-0,025
-340,591	-100,695	-0,090	0,016
-339,577	-120,571	-0,030	0,004
-338,562	529,246	0,055	-0,096
-337,548	-89,240	-0,097	0,021
-336,533	-200,000	0,002	-0,051
-335,518	706,508	0,032	0,062
-334,504	101,994	0,037	0,032
-333,489	-200,000	-0,006	0,085
-332,475	800,000	-0,042	0,096
-331,460	-133,235	0,178	0,016
-330,445	-186,472	0,106	0,001
-329,431	413,724	-0,016	0,025
-328,416	368,029	-0,039	0,057
-327,402	-45,666	0,029	0,010
-326,387	736,453	-0,055	0,109
-325,372	-200,000	-0,025	-0,083
-324,358	-105,593	-0,147	0,024
-323,343	-200,000	0,002	-0,016
-322,329	-200,000	-0,013	-0,059
-321,314	-31,891	0,058	0,024
-320,299	-4,472	0,205	0,103
-319,285	-54,331	-0,025	-0,008
-318,270	182,187	-0,075	-0,081
-317,256	588,317	0,032	0,059
-316,241	373,015	-0,019	-0,028
-315,226	-200,000	-0,029	-0,154
-314,212	211,411	0,041	-0,047
-313,197	-158,544	0,070	0,003
-312,183	800,000	-0,008	0,018
-311,168	-20,050	0,053	0,024
-310,153	178,820	0,018	0,019
-309,139	800,000	0,038	-0,090
-308,124	518,444	0,040	-0,069
-307,110	-31,553	0,047	-0,019
-306,095	428,875	0,020	0,032
-305,080	-200,000	-0,026	0,098
-304,066	85,468	-0,025	-0,020
-303,051	368,410	0,023	-0,034
-302,037	-82,091	-0,066	-0,016
-301,022	-200,000	-0,006	0,043
-300,008	124,359	0,054	0,049
-298,993	613,236	-0,040	0,074
-297,978	-17,064	0,021	-0,010
-296,964	-200,000	0,016	-0,063
-295,949	-20,702	-0,034	-0,015
-294,935	800,000	-0,014	0,029
-293,920	800,000	0,040	-0,099
-292,905	-88,061	0,089	0,019
-291,891	800,000	-0,034	0,082
-290,876	-200,000	-0,016	0,117
-289,862	-15,340	-0,094	0,044
-288,847	-0,965	-0,104	0,054
-287,832	-200,000	-0,022	0,079
-286,818	800,000	0,017	0,052
-285,803	-33,435	0,101	0,040
-284,789	109,264	0,043	-0,038
-283,774	92,680	0,047	0,038
-282,759	142,561	0,106	-0,103
-281,745	680,947	-0,056	-0,107
-280,730	-117,306	0,040	-0,005
-279,716	-200,000	-0,013	0,076
-278,701	800,000	0,039	0,112
-277,686	-200,000	0,033	0,226
-276,672	122,801	-0,065	-0,060
-275,657	-174,421	-0,074	-0,002
-274,643	340,919	-0,073	0,105
-273,628	25,584	-0,062	-0,038
-272,613	-200,000	0,013	0,057
-271,599	800,000	-0,004	-0,010
-270,584	142,717	0,092	0,090
-269,570	446,218	0,016	-0,026
-268,555	45,524	-0,076	0,051
-267,540	-84,839	0,032	0,007
-266,526	-68,499	-0,102	0,029
-265,511	259,990	0,049	0,062
-264,497	131,028	-0,105	-0,098
-263,482	67,160	0,068	-0,050
-262,467	800,000	-0,042	0,120
-261,453	800,000	-0,011	0,032
-260,438	91,018	-0,067	0,055
-259,424	613,374	0,060	-0,110
-258,409	-200,000	-0,005	0,092
-257,395	-200,000	0,004	0,018
-256,380	-85,890	0,083	-0,019
-255,365	-83,118	0,073	-0,017
-254,351	-106,120	0,058	0,009
-253,336	-35,233	0,086	-0,034
-252,322	-42,917	0,028	-0,010
-251,307	-39,750	0,104	0,039
-250,292	426,536	0,027	-0,042
-249,278	-200,000	0,002	0,054
-248,263	-91,249	0,132	-0,027
-247,249	348,968	0,137	0,198
-246,234	-23,501	-0,096	-0,042
-245,219	-148,058	0,063	-0,004
-244,205	-81,888	-0,090	-0,021
-243,190	-200,000	-0,022	0,132
-242,176	-200,000	-0,025	0,123
-241,161	-1,401	0,218	0,112
-240,146	87,672	-0,115	0,093
-239,132	-2,902	0,087	0,044
-238,117	-200,000	-0,021	-0,153
-237,103	-40,439	0,166	-0,063
-236,088	-200,000	0,026	0,125
-235,073	350,605	-0,083	0,120
-234,059	-75,180	0,093	-0,024
-233,044	-200,000	0,013	-0,090
-232,030	-200,000	0,005	-0,022
-231,015	49,475	0,112	-0,077
-230,000	-31,148	0,106	0,044
-228,986	110,976	0,039	-0,034
-227,971	-200,000	-0,023	0,083
-226,957	-80,651	-0,087	0,021
-225,942	139,269	0,107	0,102
-224,927	-74,153	-0,055	0,014
-223,913	5,680	-0,151	0,081
-222,898	-76,565	-0,026	0,007
-221,884	163,413	-0,025	0,026
-220,869	73,792	-0,043	0,033
-219,855	395,656	-0,016	0,025
-218,840	-200,000	0,006	0,085
-217,825	-200,000	-0,001	0,147
-216,811	383,222	-0,025	0,037
-215,796	-121,300	-0,057	0,007
-214,782	26,485	-0,065	-0,040
-213,767	-62,484	-0,075	0,023
-212,752	202,447	0,021	0,024
-211,738	78,565	0,097	0,075
-210,723	704,212	0,025	0,048
-209,709	537,121	0,072	0,125
-208,694	-86,065	-0,120	0,027
-207,679	-200,000	-0,001	0,067
-206,665	-200,000	0,046	0,180
-205,650	-42,954	0,074	0,027
-204,636	-200,000	-0,004	-0,105
-203,621	-79,526	-0,118	0,029
-202,606	-200,000	0,035	-0,128
-201,592	800,000	-0,040	-0,086
-200,577	-200,000	-0,012	-0,090
-199,563	50,811	0,101	-0,069
-198,548	10,800	0,122	-0,068
-197,533	775,582	0,019	-0,039
-196,519	50,587	0,132	0,091
-195,504	800,000	-0,078	-0,163
-194,490	-30,300	-0,140	-0,058
-193,475	414,010	-0,084	-0,132
-192,460	-200,000	0,004	-0,049
-191,446	-200,000	0,006	-0,021
-190,431	-200,000	0,000	0,096
-189,417	198,733	-0,056	0,063
-188,402	-200,000	0,014	0,118
-187,387	63,476	0,096	-0,070
-186,373	800,000	-0,017	0,046
-185,358	75,937	-0,086	0,066
-184,344	800,000	0,033	0,088
-183,329	-200,000	0,006	-0,129
-182,315	549,690	0,032	0,056
-181,300	-92,021	-0,100	0,021
-180,285	672,451	0,042	0,079
-179,271	-200,000	0,002	-0,125
-178,256	14,184	-0,052	-0,030
-177,242	-54,729	0,125	0,041
-176,227	-200,000	-0,000	0,149
-175,212	-86,318	0,031	-0,007
-174,198	17,497	-0,078	-0,045
-173,183	780,731	-0,045	-0,091
-172,169	-144,607	0,055	0,004
-171,154	34,748	-0,132	0,084
-170,139	-200,000	0,004	-0,041
-169,125	-200,000	0,043	0,178
-168,110	-200,000	-0,019	0,124
-167,096	-200,000	-0,001	0,094
-166,081	800,000	0,041	0,104
-165,066	-200,000	0,012	-0,046
-164,052	137,112	0,028	-0,026
-163,037	-200,000	-0,017	-0,087
-162,023	24,667	-0,027	-0,016
-161,008	-16,831	-0,024	0,011
-159,993	580,993	0,070	0,125
-158,979	29,957	-0,088	-0,054
-157,964	-134,789	0,095	0,008
-156,950	800,000	-0,038	0,083
-155,935	113,991	0,045	0,040
-154,920	461,781	0,085	0,138
-153,906	6,628	-0,159	0,086
-152,891	26,900	0,094	0,057
-151,877	127,416	0,043	0,040
-150,862	-200,000	-0,005	-0,042
-149,847	161,251	-0,007	0,007
-148,833	-200,000	0,000	-0,050
-147,818	-200,000	-0,002	0,034
-146,804	-19,805	0,039	-0,017
-145,789	-44,163	-0,052	0,019
-144,775	-98,680	-0,076	0,014
-143,760	46,246	0,053	-0,035
-142,745	169,383	-0,063	0,066
-141,731	-200,000	-0,039	-0,149
-140,716	-200,000	0,015	0,079
-139,702	185,180	0,026	0,028
-138,687	111,666	-0,045	0,039
-137,672	166,589	-0,078	0,080
-136,658	-23,888	0,029	-0,013
-135,643	200,992	0,065	-0,073
-134,629	2,980	-0,082	-0,043
-133,614	18,233	0,093	-0,054
-132,599	-43,828	0,035	0,013
-131,585	-200,000	0,004	-0,027
-130,570	174,080	-0,079	-0,083
-129,556	-176,026	-0,195	0,004
-128,541	276,700	0,020	-0,025
-127,526	130,939	-0,058	0,054
-126,512	-200,000	0,021	0,127
-125,497	-200,000	-0,035	-0,139
-124,483	8,717	-0,041	0,022
-123,468	-92,341	0,062	0,013
-122,453	-16,855	-0,112	0,051
-121,439	98,774	-0,088	0,073
-120,424	-110,400	0,051	-0,008
-119,410	537,776	0,024	0,042
