DTS Sentinel unit serial number:	SN410029Multiplexer serial number:	ORYXHardware model number:	OX2-SRSoftware version number:	ORYX F/W v4,00 Oryx Data Collector v3.7.2.0data status	okinstallation	B6 Nyhavnadifferential loss correction	single-endedforward channel	channel 2reverse channel	N/Adate	2023/12/11time	04:50:08forward acquisition time	300,00reverse acquisition time	0,00gamma	499,1914k internal	0,3126k external	0,3126temperature offset calibration	1,0000default loss term (dB/km)	0,3820temperature slope calibration	1,0000multiplexer offset coefficient	1,0000multiplexer slope coefficient	1,0000fibre end	0,00T internal ref (°C)	20,32T ext. ref 1 (°C)	3,13T ext. ref 2 (°C)	3,13length (m)	temperature (°C)	Stokes	anti-Stokes-744,400	-200,000	-0,028	-0,116
-743,385	-124,627	-0,266	0,030
-742,371	50,280	0,116	0,081
-741,356	-86,644	-0,181	-0,041
-740,342	9,686	0,035	0,020
-739,327	-72,675	-0,102	0,028
-738,312	-172,201	0,105	0,002
-737,298	-57,603	-0,253	0,082
-736,283	800,000	0,021	-0,058
-735,269	26,762	-0,129	0,080
-734,254	28,390	-0,062	-0,039
-733,239	-105,624	-0,407	-0,068
-732,225	-48,060	0,165	0,059
-731,210	-89,826	0,108	0,023
-730,196	13,817	0,054	-0,031
-729,181	800,000	0,086	0,181
-728,167	-45,140	-0,078	0,029
-727,152	-122,811	0,045	-0,005
-726,137	800,000	0,041	-0,116
-725,123	113,630	0,101	-0,091
-724,108	-200,000	0,005	-0,104
-723,094	-21,896	-0,136	-0,061
-722,079	-200,000	-0,035	-0,134
-721,064	-125,819	0,073	0,008
-720,050	800,000	-0,039	0,108
-719,035	-22,483	-0,034	0,015
-718,021	-133,978	-0,212	0,019
-717,006	-61,721	-0,115	-0,036
-715,991	6,982	-0,131	-0,072
-714,977	413,187	-0,062	-0,099
-713,962	105,311	-0,078	-0,068
-712,948	-72,882	-0,058	-0,016
-711,933	800,000	-0,019	0,046
-710,918	145,535	0,135	-0,134
-709,904	306,822	-0,040	-0,055
-708,889	-200,000	0,002	-0,029
-707,875	-120,098	-0,072	-0,009
-706,860	377,715	-0,027	-0,040
-705,845	358,984	-0,025	0,037
-704,831	102,124	0,089	0,078
-703,816	106,068	-0,104	0,092
-702,802	800,000	-0,040	0,085
-701,787	153,079	-0,044	0,045
-700,772	-200,000	0,008	-0,053
-699,758	266,041	-0,015	-0,019
-698,743	-6,396	-0,074	0,037
-697,729	800,000	0,034	0,083
-696,714	-101,977	0,100	-0,018
-695,699	-2,139	-0,106	-0,055
-694,685	-200,000	-0,002	-0,056
-693,670	673,827	0,045	-0,088
-692,656	588,729	-0,045	0,084
-691,641	800,000	0,010	0,021
-690,627	192,357	0,017	-0,019
-689,612	-200,000	0,034	0,141
-688,597	800,000	0,024	-0,076
-687,583	-200,000	-0,012	0,068
-686,568	-82,254	0,052	0,012
-685,554	274,260	-0,129	0,171
-684,539	-112,101	-0,022	0,003
-683,524	800,000	0,061	0,145
-682,510	256,921	0,065	0,083
-681,495	129,469	-0,113	0,107
-680,481	44,661	-0,007	0,005
-679,466	2,900	-0,100	-0,054
-678,451	654,433	-0,067	-0,128
-677,437	-200,000	-0,001	0,013
-676,422	-200,000	-0,018	-0,080
-675,408	800,000	0,025	0,055
-674,393	-143,423	0,046	0,003
-673,378	117,314	-0,107	0,097
-672,364	800,000	0,046	-0,117
-671,349	46,063	-0,095	-0,065
-670,335	-104,731	0,119	0,020
-669,320	35,380	0,033	-0,022
-668,305	46,713	0,092	0,063
-667,291	265,817	-0,068	-0,089
-666,276	61,028	0,054	-0,040
-665,262	11,825	-0,043	0,025
-664,247	800,000	0,012	-0,039
-663,232	770,413	-0,054	-0,110
-662,218	-200,000	-0,005	0,030
-661,203	-200,000	0,010	-0,059
-660,189	258,195	-0,036	-0,046
-659,174	11,561	-0,015	0,009
-658,159	150,099	-0,130	-0,131
-657,145	3,575	-0,047	-0,025
-656,130	78,220	0,064	-0,051
-655,116	24,132	-0,066	0,040
-654,101	-200,000	0,029	-0,118
-653,086	397,794	0,050	-0,077
-652,072	15,690	-0,088	-0,051
-651,057	-71,446	-0,121	-0,033
-650,043	800,000	0,046	-0,121
-649,028	800,000	-0,079	0,171
-648,014	-110,537	-0,104	0,016
-646,999	800,000	0,015	-0,036
-645,984	800,000	-0,007	-0,018
-644,970	-104,732	-0,048	0,008
-643,955	34,665	-0,163	-0,105
-642,941	134,960	0,052	0,050
-641,926	614,274	-0,054	-0,101
-640,911	20,488	0,064	-0,038
-639,897	84,453	-0,032	-0,026
-638,882	95,905	0,022	-0,019
-637,868	753,897	0,022	0,044
-636,853	119,874	-0,148	-0,136
-635,838	168,883	-0,026	0,028
-634,824	-70,316	0,033	-0,009
-633,809	-37,714	0,067	0,026
-632,795	317,445	-0,043	-0,061
-631,780	384,937	-0,020	0,030
-630,765	3,052	-0,107	-0,057
-629,751	59,504	-0,083	0,061
-628,736	585,765	-0,047	0,087
-627,722	800,000	0,055	0,122
-626,707	-132,723	-0,022	-0,002
-625,692	370,799	-0,030	-0,046
-624,678	-200,000	0,002	-0,107
-623,663	6,878	-0,072	-0,040
-622,649	8,758	0,073	-0,041
-621,634	371,467	-0,078	-0,117
-620,619	1,339	-0,090	-0,048
-619,605	116,106	-0,092	0,084
-618,590	140,263	0,035	-0,035
-617,576	-110,348	0,138	-0,021
-616,561	150,406	-0,055	-0,056
-615,546	460,999	-0,018	-0,030
-614,532	-189,150	0,077	-0,001
-613,517	140,336	-0,099	0,096
-612,503	17,164	0,023	0,013
-611,488	-200,000	0,004	-0,019
-610,474	800,000	0,012	-0,036
-609,459	-45,248	0,033	0,012
-608,444	-137,576	-0,043	-0,004
-607,430	543,622	0,035	-0,062
-606,415	-200,000	-0,005	-0,115
-605,401	-140,488	-0,033	0,002
-604,386	800,000	0,033	-0,097
-603,371	-138,052	0,065	-0,005
-602,357	445,673	0,059	-0,096
-601,342	-200,000	-0,044	-0,216
-600,328	-200,000	0,012	-0,070
-599,313	-62,332	-0,028	-0,009
-598,298	308,625	-0,057	0,079
-597,284	800,000	0,022	0,055
-596,269	282,475	-0,037	0,049
-595,255	-11,088	0,125	-0,061
-594,240	-98,751	-0,105	0,020
-593,225	-200,000	0,014	0,114
-592,211	355,266	-0,076	0,112
-591,196	-200,000	0,011	-0,062
-590,182	-200,000	-0,015	0,054
-589,167	653,801	0,026	0,049
-588,152	-35,133	-0,166	0,067
-587,138	-161,423	-0,072	0,003
-586,123	-48,182	-0,106	0,038
-585,109	-26,828	-0,114	-0,049
-584,094	800,000	-0,017	-0,054
-583,079	194,265	-0,023	-0,026
-582,065	800,000	0,036	0,101
-581,050	397,886	-0,034	0,053
-580,036	-200,000	-0,026	0,124
-579,021	-23,259	-0,111	-0,049
-578,006	57,345	-0,073	0,053
-576,992	-200,000	0,009	0,036
-575,977	555,703	-0,029	-0,052
-574,963	-200,000	0,029	-0,127
-573,948	-200,000	0,021	-0,101
-572,934	553,179	0,096	-0,171
-571,919	800,000	0,055	-0,136
-570,904	-90,733	-0,022	0,005
-569,890	-9,303	-0,059	-0,029
-568,875	227,074	0,003	0,004
-567,861	-135,581	0,058	0,005
-566,846	280,257	0,027	-0,036
-565,831	-53,052	0,001	-0,000
-564,817	800,000	-0,037	-0,088
-563,802	-3,634	-0,078	-0,040
-562,788	-91,222	-0,071	-0,015
-561,773	-13,309	0,084	-0,040
-560,758	800,000	-0,081	-0,193
-559,744	800,000	-0,068	-0,175
-558,729	-122,938	0,066	-0,008
-557,715	800,000	-0,046	-0,142
-556,700	694,396	0,007	-0,013
-555,685	800,000	-0,042	-0,098
-554,671	-196,068	-0,107	-0,001
-553,656	-200,000	0,005	0,095
-552,642	-55,459	0,103	0,034
-551,627	310,353	0,059	0,082
-550,612	-87,115	-0,064	0,014
-549,598	-200,000	0,010	-0,119
-548,583	-38,574	-0,041	0,016
-547,569	-12,169	0,041	0,020
-546,554	341,462	-0,050	0,072
-545,539	206,719	-0,036	0,042
-544,525	-200,000	-0,001	-0,127
-543,510	480,412	-0,084	-0,142
-542,496	800,000	0,018	0,040
-541,481	-200,000	-0,014	-0,050
-540,466	-41,013	0,075	-0,029
-539,452	183,380	0,017	0,018
-538,437	-200,000	0,007	0,080
-537,423	381,457	-0,018	-0,028
-536,408	274,376	0,068	0,090
-535,393	-110,661	-0,025	-0,004
-534,379	800,000	-0,035	0,085
-533,364	-174,701	-0,094	0,002
-532,350	-200,000	0,005	0,030
-531,335	4,727	0,030	0,016
-530,321	12,870	0,111	-0,063
-529,306	273,267	0,042	-0,055
-528,291	-200,000	0,012	0,083
-527,277	-200,000	-0,003	0,043
-526,262	558,326	-0,067	-0,120
-525,248	800,000	-0,022	0,051
-524,233	722,098	0,021	-0,042
-523,218	-200,000	-0,035	0,148
-522,204	-200,000	0,033	0,130
-521,189	186,982	-0,036	-0,039
-520,175	800,000	0,013	-0,029
-519,160	250,404	-0,076	-0,095
-518,145	-112,247	-0,116	-0,017
-517,131	-39,595	0,190	-0,073
-516,116	800,000	0,023	0,074
-515,102	-200,000	-0,003	0,065
-514,087	116,092	0,055	0,050
-513,072	-200,000	-0,002	-0,043
-512,058	202,681	-0,043	-0,049
-511,043	264,262	-0,094	0,121
-510,029	-70,072	0,091	-0,025
-509,014	264,984	-0,038	0,049
-507,999	-200,000	0,020	-0,101
-506,985	-200,000	0,042	-0,189
-505,970	-77,790	-0,036	-0,009
-504,956	62,057	-0,056	-0,041
-503,941	368,937	0,058	0,087
-502,926	-48,884	0,149	0,053
-501,912	-199,937	0,121	-0,000
-500,897	800,000	0,062	-0,129
-499,883	606,359	-0,047	-0,087
-498,868	-200,000	0,004	-0,049
-497,853	-200,000	-0,023	-0,104
-496,839	-31,376	0,120	0,049
-495,824	800,000	0,029	0,074
-494,810	800,000	0,026	0,053
-493,795	-36,300	0,056	0,022
-492,781	18,955	0,051	0,030
-491,766	361,638	-0,037	-0,055
-490,751	-200,000	0,010	-0,036
-489,737	-132,808	0,005	-0,000
-488,722	-200,000	0,036	0,133
-487,708	-89,150	-0,136	-0,029
-486,693	-200,000	-0,016	0,119
-485,678	-200,000	-0,029	0,117
-484,664	302,476	-0,022	-0,030
-483,649	-160,936	-0,094	-0,004
-482,635	-200,000	0,008	-0,027
-481,620	800,000	-0,066	0,197
-480,605	-93,651	0,025	0,005
-479,591	305,154	0,063	0,086
-478,576	43,723	-0,044	0,030
-477,562	-200,000	-0,010	-0,078
-476,547	-92,735	-0,058	-0,012
-475,532	76,138	-0,083	0,065
-474,518	-147,056	0,095	0,006
-473,503	179,022	-0,085	0,092
-472,489	251,070	0,050	-0,063
-471,474	800,000	-0,030	-0,090
-470,459	-3,021	-0,065	0,033
-469,445	-200,000	0,002	0,053
-468,430	800,000	-0,057	-0,147
-467,416	-157,519	-0,047	0,002
-466,401	245,226	0,062	-0,076
-465,386	6,130	0,138	-0,075
-464,372	-49,839	-0,081	-0,028
-463,357	21,906	-0,059	-0,035
-462,343	-200,000	-0,035	-0,137
-461,328	-13,259	0,085	0,040
-460,313	213,761	0,033	-0,038
-459,299	58,237	-0,075	0,054
-458,284	800,000	0,029	-0,085
-457,270	800,000	-0,072	-0,211
-456,255	286,821	-0,048	0,064
-455,241	-200,000	-0,031	-0,152
-454,226	-76,016	-0,073	0,019
-453,211	-200,000	0,013	0,051
-452,197	-200,000	0,049	0,242
-451,182	-67,610	-0,076	0,022
-450,168	-200,000	0,016	-0,055
-449,153	791,769	0,019	0,038
-448,138	-200,000	-0,015	-0,160
-447,124	800,000	0,024	0,073
-446,109	-200,000	-0,006	0,053
-445,095	-200,000	0,008	-0,043
-444,080	-200,000	-0,007	0,091
-443,065	-155,039	0,034	-0,002
-442,051	-4,143	-0,094	0,048
-441,036	-200,000	0,013	-0,052
-440,022	-16,837	0,050	0,023
-439,007	-23,318	0,127	-0,056
-437,992	65,192	0,067	-0,050
-436,978	-200,000	-0,004	0,111
-435,963	-111,617	0,056	-0,008
-434,949	232,486	-0,065	0,079
-433,934	-200,000	0,029	-0,105
-432,919	36,198	-0,175	-0,113
-431,905	-200,000	0,009	0,104
-430,890	800,000	-0,020	0,043
-429,876	-105,775	0,123	-0,020
-428,861	692,337	0,033	-0,063
-427,846	-155,441	-0,023	0,001
-426,832	280,272	-0,121	-0,160
-425,817	-200,000	0,004	-0,025
-424,803	-85,759	0,011	-0,003
-423,788	-200,000	-0,022	-0,175
-422,773	327,186	-0,045	-0,063
-421,759	-200,000	0,001	0,009
-420,744	-200,000	0,003	-0,064
-419,730	5,398	-0,157	0,085
-418,715	585,506	-0,072	0,130
-417,701	-55,205	-0,047	-0,016
-416,686	800,000	0,053	0,134
-415,671	800,000	0,034	0,088
-414,657	-178,514	-0,136	0,002
-413,642	36,768	0,079	0,051
-412,628	-153,402	-0,075	0,004
-411,613	-16,515	-0,107	-0,050
-410,598	119,886	0,040	-0,037
-409,584	-118,608	-0,151	-0,019
-408,569	-44,674	0,143	0,052
-407,555	-128,980	0,045	-0,005
-406,540	47,244	-0,074	0,051
-405,525	740,412	-0,035	0,069
-404,511	720,758	-0,083	-0,162
-403,496	10,402	-0,072	0,040
-402,482	750,054	-0,038	-0,075
-401,467	-29,462	0,098	0,041
-400,452	-200,000	-0,004	0,191
-399,438	-165,335	0,102	0,003
-398,423	193,597	-0,083	-0,092
-397,409	-72,793	-0,083	-0,022
-396,394	-200,000	0,036	-0,145
-395,379	-29,956	-0,066	-0,028
-394,365	-115,166	0,042	-0,006
-393,350	646,621	0,105	-0,197
-392,336	-200,000	0,026	0,172
-391,321	800,000	0,025	-0,062
-390,306	177,451	0,062	-0,067
-389,292	-200,000	-0,005	0,073
-388,277	800,000	0,015	-0,033
-387,263	556,100	-0,056	0,099
-386,248	-98,242	0,021	-0,004
-385,233	-123,944	-0,080	0,009
-384,219	-200,000	0,018	0,064
-383,204	-51,804	-0,125	-0,042
-382,190	-200,000	0,033	-0,142
-381,175	242,481	0,055	0,068
-380,160	293,679	0,006	-0,008
-379,146	50,727	0,108	-0,075
-378,131	-14,608	0,112	0,053
-377,117	246,366	-0,021	-0,026
-376,102	800,000	0,019	0,049
-375,088	179,292	0,012	0,013
-374,073	-16,581	0,104	0,048
-373,058	-147,373	0,164	0,010
-372,044	71,988	0,050	-0,038
-371,029	3,609	-0,116	0,062
-370,015	238,454	0,078	0,095
-369,000	745,617	-0,045	-0,089
-367,985	-91,271	-0,186	0,039
-366,971	800,000	0,029	-0,059
-365,956	244,342	0,066	-0,082
-364,942	800,000	-0,060	0,132
-363,927	10,325	-0,042	0,023
-362,912	800,000	0,031	0,064
-361,898	771,446	-0,052	0,104
-360,883	799,513	-0,014	0,029
-359,869	629,962	-0,021	-0,040
-358,854	690,453	-0,025	0,049
-357,839	-103,805	0,083	0,014
-356,825	800,000	0,047	0,102
-355,810	506,614	-0,018	-0,031
-354,796	10,537	-0,094	-0,052
-353,781	-49,470	-0,116	0,040
-352,766	-74,544	0,067	-0,018
-351,752	-200,000	0,056	0,186
-350,737	214,332	-0,046	0,053
-349,723	-24,450	0,133	0,058
-348,708	392,068	-0,011	0,016
-347,693	321,972	0,049	-0,068
-346,679	-11,439	-0,042	0,020
-345,664	-200,000	0,024	0,105
-344,650	800,000	-0,009	-0,019
-343,635	800,000	0,017	0,048
-342,620	530,317	0,147	0,255
-341,606	33,792	0,036	-0,023
-340,591	-8,297	0,049	0,024
-339,577	-200,000	0,005	0,026
-338,562	-200,000	0,008	-0,053
-337,548	-113,687	-0,074	0,010
-336,533	12,435	0,119	-0,067
-335,518	-200,000	-0,006	-0,039
-334,504	-37,184	0,079	-0,031
-333,489	-200,000	-0,017	-0,192
-332,475	-96,433	0,063	-0,012
-331,460	96,015	-0,067	-0,056
-330,445	-78,149	0,064	-0,016
-329,431	-183,506	0,096	0,001
-328,416	39,087	0,091	-0,060
-327,402	-200,000	0,010	-0,050
-326,387	-53,447	0,030	-0,010
-325,372	800,000	0,056	0,162
-324,358	140,128	0,192	0,186
-323,343	15,583	0,075	0,043
-322,329	-200,000	-0,053	0,211
-321,314	-200,000	0,000	0,101
-320,299	28,856	0,014	0,009
-319,285	-14,431	0,151	0,071
-318,270	292,760	-0,013	0,017
-317,256	-32,156	0,072	-0,029
-316,241	-107,412	-0,073	0,012
-315,226	247,591	0,075	0,093
-314,212	490,263	-0,025	0,042
-313,197	-163,922	-0,026	0,001
-312,183	-152,341	0,162	0,008
-311,168	800,000	0,014	-0,031
-310,153	-200,000	0,005	0,056
-309,139	126,390	0,058	-0,053
-308,124	-17,021	0,042	-0,019
-307,110	-200,000	0,013	0,058
-306,095	382,928	0,072	0,109
-305,080	67,895	-0,084	0,063
-304,066	242,434	-0,017	0,020
-303,051	-200,000	-0,016	0,093
-302,037	-22,074	0,049	0,021
-301,022	-200,000	-0,003	0,025
-300,008	-124,191	0,074	-0,008
-298,993	-200,000	0,007	-0,122
-297,978	493,499	-0,057	-0,097
-296,964	-121,730	-0,097	0,012
-295,949	800,000	0,048	-0,140
-294,935	-200,000	-0,014	-0,139
-293,920	800,000	-0,044	0,114
-292,905	-200,000	-0,010	0,170
-291,891	76,103	-0,023	0,018
-290,876	562,466	0,044	-0,078
-289,862	160,543	-0,090	0,092
-288,847	-200,000	-0,033	-0,216
-287,832	-200,000	-0,005	-0,019
-286,818	61,535	0,094	-0,069
-285,803	146,038	0,095	-0,094
-284,789	-200,000	0,003	0,109
-283,774	800,000	-0,021	0,059
-282,759	-200,000	-0,013	-0,047
-281,745	-70,527	-0,166	0,046
-280,730	-200,000	0,006	0,140
-279,716	31,395	-0,046	0,029
-278,701	-82,578	0,148	-0,035
-277,686	6,139	0,127	-0,068
-276,672	-200,000	0,002	0,151
-275,657	592,303	0,041	0,074
-274,643	800,000	0,046	-0,127
-273,628	-81,660	-0,087	0,021
-272,613	-200,000	-0,011	0,160
-271,599	-13,874	-0,052	0,024
-270,584	-200,000	-0,001	-0,028
-269,570	-55,730	0,114	0,037
-268,555	633,263	0,039	-0,072
-267,540	-200,000	0,005	-0,020
-266,526	53,052	-0,080	-0,056
-265,511	-200,000	0,018	-0,087
-264,497	800,000	-0,023	0,066
-263,482	373,061	-0,024	0,036
-262,467	-200,000	-0,006	0,127
-261,453	-130,954	0,108	-0,010
-260,438	50,511	-0,169	-0,117
-259,424	-130,404	-0,128	-0,013
-258,409	-200,000	0,010	-0,166
-257,395	-200,000	0,016	0,120
-256,380	800,000	0,044	0,129
-255,365	800,000	-0,013	0,028
-254,351	69,405	0,041	0,031
-253,336	800,000	0,015	-0,034
-252,322	-200,000	0,022	-0,185
-251,307	-200,000	0,015	-0,054
-250,292	187,222	-0,055	0,060
-249,278	223,066	0,144	-0,170
-248,263	-3,193	0,122	0,062
-247,249	111,537	-0,034	0,030
-246,234	37,479	-0,091	-0,059
-245,219	224,650	0,057	-0,068
-244,205	-200,000	0,000	-0,001
-243,190	168,975	-0,018	0,019
-242,176	-200,000	0,012	-0,039
-241,161	75,745	0,072	-0,055
-240,146	-200,000	-0,013	0,108
-239,132	283,110	0,033	0,044
-238,117	-200,000	0,037	-0,142
-237,103	-15,397	-0,106	0,049
-236,088	-63,243	-0,094	0,028
-235,073	592,236	0,044	0,080
-234,059	-200,000	-0,004	0,026
-233,044	-200,000	-0,005	-0,124
-232,030	-165,814	-0,081	0,002
-231,015	800,000	-0,041	0,093
-230,000	-200,000	0,015	-0,069
-228,986	-86,643	-0,047	-0,010
-227,971	-200,000	0,006	0,104
-226,957	58,618	-0,052	0,037
-225,942	-200,000	-0,011	0,139
-224,927	800,000	-0,031	-0,090
-223,913	-22,302	0,087	0,038
-222,898	-71,499	-0,090	0,024
-221,884	-200,000	-0,040	-0,152
-220,869	63,006	-0,034	-0,025
-219,855	302,066	0,084	0,113
-218,840	800,000	-0,014	-0,035
-217,825	-68,533	0,048	0,013
-216,811	434,653	0,042	0,067
-215,796	-200,000	0,003	-0,135
-214,782	-165,060	-0,089	-0,003
-213,767	-74,026	0,058	-0,015
-212,752	-22,426	-0,103	0,045
-211,738	-69,761	0,161	0,044
-210,723	800,000	-0,030	0,062
-209,709	616,853	-0,040	-0,074
-208,694	107,217	-0,056	-0,049
-207,679	800,000	0,007	-0,021
-206,665	-200,000	-0,005	-0,054
-205,650	77,368	0,049	-0,038
-204,636	-158,432	-0,033	0,001
-203,621	-65,246	-0,034	0,010
-202,606	-106,835	0,112	0,018
-201,592	-200,000	-0,008	-0,131
-200,577	-200,000	-0,012	-0,139
-199,563	62,214	-0,082	0,060
-198,548	800,000	0,037	-0,088
-197,533	-134,562	-0,053	0,005
-196,519	152,123	-0,106	0,105
-195,504	169,812	0,081	0,084
-194,490	-179,529	0,091	-0,001
-193,475	582,900	0,071	0,127
-192,460	88,694	0,121	-0,098
-191,446	230,732	0,031	-0,037
-190,431	800,000	-0,045	0,105
-189,417	270,389	0,018	-0,023
-188,402	126,653	0,058	-0,053
-187,387	-200,000	0,029	0,106
-186,373	800,000	-0,025	0,066
-185,358	-200,000	-0,020	-0,107
-184,344	120,306	0,099	0,089
-183,329	54,870	-0,084	0,059
-182,315	-200,000	0,007	0,104
-181,300	292,663	0,021	0,028
-180,285	51,426	0,012	-0,008
-179,271	-17,496	0,083	-0,038
-178,256	-47,896	-0,126	-0,044
-177,242	24,737	0,122	-0,073
-176,227	222,000	-0,027	-0,032
-175,212	-200,000	-0,004	0,097
-174,198	-97,580	0,039	0,007
-173,183	-200,000	-0,007	0,049
-172,169	-200,000	0,014	0,133
-171,154	-117,263	0,026	-0,003
-170,139	44,564	0,097	-0,065
-169,125	800,000	-0,028	-0,070
-168,110	-57,192	0,083	0,026
-167,096	-200,000	0,007	0,090
-166,081	784,584	0,046	0,092
-165,066	800,000	-0,011	0,030
-164,052	720,113	-0,030	0,059
-163,037	-180,211	-0,007	-0,000
-162,023	-86,515	0,175	0,039
-161,008	-50,398	-0,094	0,032
-159,993	800,000	-0,077	-0,166
-158,979	52,315	0,065	0,045
-157,964	-200,000	-0,007	0,151
-156,950	134,824	0,061	0,058
-155,935	-164,401	0,029	0,001
-154,920	800,000	-0,025	0,074
-153,906	-200,000	0,003	-0,012
-152,891	266,246	0,070	-0,089
-151,877	-200,000	0,014	0,088
-150,862	-200,000	-0,006	-0,069
-149,847	-200,000	0,032	-0,178
-148,833	-153,195	0,080	0,004
-147,818	-200,000	0,006	0,082
-146,804	800,000	-0,028	-0,073
-145,789	270,604	0,039	0,050
-144,775	240,791	-0,124	-0,150
-143,760	435,495	-0,015	0,023
-142,745	171,653	-0,064	0,067
-141,731	216,559	0,057	0,067
-140,716	93,041	0,119	0,098
-139,702	-24,206	0,020	0,009
-138,687	-126,488	0,075	-0,008
-137,672	-200,000	-0,011	-0,056
-136,658	13,551	-0,027	-0,015
-135,643	46,741	-0,043	-0,029
-134,629	-161,664	-0,092	-0,003
-133,614	-52,239	-0,139	0,046
-132,599	193,036	-0,029	-0,032
-131,585	9,313	-0,046	0,025
-130,570	189,806	0,019	0,020
-129,556	332,921	0,059	-0,083
-128,541	65,994	-0,123	-0,090
-127,526	11,085	-0,104	-0,058
-126,512	-200,000	-0,004	-0,061
-125,497	123,096	0,036	-0,033
-124,483	-44,310	0,075	0,027
-123,468	278,035	-0,034	-0,045
-122,453	31,620	0,104	-0,065
-121,439	800,000	0,017	0,040
-120,424	-200,000	-0,026	-0,155
-119,410	119,956	0,111	0,100
