DTS Sentinel unit serial number:	SN410029Multiplexer serial number:	ORYXHardware model number:	OX2-SRSoftware version number:	ORYX F/W v4,00 Oryx Data Collector v3.7.2.0data status	okinstallation	B6 Nyhavnadifferential loss correction	single-endedforward channel	channel 2reverse channel	N/Adate	2023/12/08time	21:50:08forward acquisition time	300,00reverse acquisition time	0,00gamma	499,1914k internal	0,3158k external	0,3158temperature offset calibration	1,0000default loss term (dB/km)	0,3820temperature slope calibration	1,0000multiplexer offset coefficient	1,0000multiplexer slope coefficient	1,0000fibre end	0,00T internal ref (°C)	15,25T ext. ref 1 (°C)	-1,28T ext. ref 2 (°C)	-1,27length (m)	temperature (°C)	Stokes	anti-Stokes-744,400	-163,277	0,215	-0,007
-743,385	-74,320	-0,271	0,072
-742,371	-134,550	0,164	-0,015
-741,356	-125,567	-0,239	0,026
-740,342	-200,000	0,001	-0,042
-739,327	-56,932	-0,140	0,045
-738,312	800,000	0,044	-0,103
-737,298	-175,240	-0,259	-0,005
-736,283	36,208	0,093	-0,060
-735,269	-90,371	-0,253	-0,054
-734,254	-27,151	0,095	0,041
-733,239	-71,839	-0,541	-0,147
-732,225	288,883	0,062	-0,083
-731,210	-89,749	0,004	-0,001
-730,196	82,960	-0,085	0,068
-729,181	527,238	-0,024	-0,041
-728,167	-107,912	-0,109	-0,017
-727,152	64,441	0,040	-0,030
-726,137	800,000	0,047	-0,132
-725,123	-13,748	-0,043	-0,020
-724,108	800,000	0,037	-0,104
-723,094	-9,146	-0,081	0,040
-722,079	-102,498	-0,129	-0,022
-721,064	-123,794	-0,045	-0,005
-720,050	-52,591	0,108	-0,037
-719,035	558,379	-0,017	-0,030
-718,021	-200,000	0,023	-0,139
-717,006	167,719	-0,034	-0,036
-715,991	-200,000	0,018	-0,103
-714,977	526,014	-0,029	-0,050
-713,962	-60,145	-0,097	-0,030
-712,948	-143,298	0,229	0,016
-711,933	-200,000	-0,005	-0,034
-710,918	-200,000	0,009	-0,069
-709,904	800,000	-0,020	0,063
-708,889	83,551	0,106	-0,085
-707,875	-200,000	-0,055	-0,186
-706,860	-2,686	-0,130	-0,066
-705,845	627,774	-0,068	-0,126
-704,831	-144,850	0,112	-0,007
-703,816	800,000	-0,053	0,137
-702,802	-45,065	-0,141	0,051
-701,787	14,247	-0,117	-0,067
-700,772	205,336	-0,024	0,027
-699,758	33,116	0,060	-0,038
-698,743	800,000	0,050	0,132
-697,729	489,295	0,091	0,154
-696,714	6,009	0,071	-0,039
-695,699	-200,000	-0,046	-0,200
-694,685	86,192	0,091	0,074
-693,670	-25,824	-0,083	0,036
-692,656	-113,416	0,139	0,020
-691,641	-77,010	-0,044	0,011
-690,627	-190,181	0,050	-0,000
-689,612	-72,573	-0,081	-0,022
-688,597	-1,014	0,030	-0,016
-687,583	-49,965	-0,142	-0,049
-686,568	-200,000	0,002	0,139
-685,554	131,566	-0,119	0,113
-684,539	-143,226	-0,032	0,002
-683,524	323,425	-0,010	0,014
-682,510	-45,577	0,039	-0,014
-681,495	498,956	-0,053	-0,090
-680,481	513,681	-0,086	-0,148
-679,466	172,037	-0,110	0,117
-678,451	780,572	-0,084	-0,171
-677,437	-110,317	0,126	0,019
-676,422	800,000	-0,043	-0,093
-675,408	-200,000	-0,049	-0,218
-674,393	-200,000	0,001	-0,085
-673,378	800,000	-0,063	0,134
-672,364	-54,606	-0,084	0,028
-671,349	-200,000	0,019	-0,063
-670,335	1,020	0,085	0,044
-669,320	-54,078	0,049	-0,016
-668,305	800,000	0,025	0,058
-667,291	178,718	-0,073	-0,078
-666,276	-38,089	-0,052	-0,020
-665,262	-200,000	-0,031	-0,179
-664,247	-200,000	0,054	-0,181
-663,232	800,000	0,008	-0,023
-662,218	25,381	0,139	0,085
-661,203	-200,000	-0,007	-0,155
-660,189	-64,534	0,072	0,021
-659,174	-104,323	0,026	0,004
-658,159	-103,098	-0,056	-0,010
-657,145	13,525	-0,106	0,060
-656,130	25,483	0,046	0,028
-655,116	-63,806	-0,101	0,030
-654,101	-200,000	0,004	-0,116
-653,086	-93,969	-0,025	-0,005
-652,072	146,691	-0,079	0,078
-651,057	-200,000	0,000	-0,032
-650,043	-36,051	-0,067	-0,026
-649,028	423,755	0,025	-0,039
-648,014	-200,000	0,016	0,072
-646,999	-200,000	0,019	-0,178
-645,984	80,224	0,079	-0,062
-644,970	-200,000	0,046	-0,174
-643,955	-200,000	-0,020	0,095
-642,941	-200,000	-0,004	-0,102
-641,926	-200,000	-0,000	-0,043
-640,911	-200,000	0,012	-0,096
-639,897	99,693	-0,037	0,031
-638,882	127,313	-0,047	-0,044
-637,868	800,000	-0,011	0,036
-636,853	-85,786	-0,111	0,025
-635,838	-21,109	-0,143	0,064
-634,824	168,259	0,029	-0,031
-633,809	-200,000	0,019	-0,156
-632,795	554,400	0,048	-0,084
-631,780	-58,436	-0,148	-0,047
-630,765	800,000	-0,057	-0,122
-629,751	-118,916	-0,106	0,014
-628,736	-20,561	-0,080	-0,036
-627,722	780,767	0,030	0,060
-626,707	-45,251	0,108	0,039
-625,692	-152,419	-0,130	0,007
-624,678	-200,000	-0,010	0,036
-623,663	383,615	0,057	-0,087
-622,649	800,000	-0,059	0,128
-621,634	-137,753	-0,031	-0,003
-620,619	-200,000	0,019	0,116
-619,605	-200,000	0,031	-0,123
-618,590	-200,000	-0,009	-0,185
-617,576	134,352	0,043	0,041
-616,561	87,797	-0,121	-0,098
-615,546	-30,389	0,071	0,030
-614,532	462,279	-0,062	-0,102
-613,517	-200,000	-0,017	-0,071
-612,503	19,187	0,103	0,060
-611,488	-200,000	0,024	0,095
-610,474	-200,000	0,012	0,192
-609,459	730,490	-0,053	0,105
-608,444	-200,000	-0,000	-0,163
-607,430	800,000	-0,035	-0,083
-606,415	-200,000	0,019	-0,178
-605,401	-139,048	-0,111	-0,009
-604,386	-14,056	-0,076	-0,036
-603,371	-200,000	0,007	0,054
-602,357	1,471	-0,133	0,070
-601,342	-136,620	-0,033	0,003
-600,328	-200,000	0,009	0,042
-599,313	800,000	0,029	-0,072
-598,298	-61,875	-0,033	-0,010
-597,284	288,914	-0,066	0,088
-596,269	-71,779	0,038	-0,010
-595,255	-200,000	0,007	0,026
-594,240	206,276	-0,048	-0,055
-593,225	-58,587	0,062	-0,020
-592,211	-105,390	-0,070	0,012
-591,196	357,030	0,056	-0,082
-590,182	-200,000	0,002	-0,079
-589,167	-200,000	0,001	0,062
-588,152	-81,447	0,114	0,027
-587,138	-76,382	0,103	0,026
-586,123	-200,000	0,016	-0,186
-585,109	-200,000	0,007	-0,057
-584,094	179,284	0,095	0,102
-583,079	348,303	0,118	0,170
-582,065	127,145	0,030	0,028
-581,050	-200,000	0,003	0,031
-580,036	-116,195	-0,048	0,006
-579,021	-200,000	0,009	-0,094
-578,006	-101,941	-0,068	-0,012
-576,992	-200,000	0,006	0,037
-575,977	-200,000	-0,006	0,216
-574,963	20,697	0,090	0,053
-573,948	91,993	-0,027	0,023
-572,934	-75,230	-0,110	0,029
-571,919	140,644	-0,035	-0,034
-570,904	800,000	-0,010	-0,030
-569,890	-86,109	0,105	-0,023
-568,875	35,152	-0,086	0,055
-567,861	800,000	-0,055	0,124
-566,846	145,120	-0,092	0,090
-565,831	-200,000	0,012	0,046
-564,817	-179,802	-0,157	0,002
-563,802	800,000	-0,018	0,057
-562,788	16,052	0,118	0,068
-561,773	800,000	-0,017	0,041
-560,758	739,707	0,030	0,059
-559,744	-93,748	0,124	-0,025
-558,729	-200,000	-0,024	-0,078
-557,715	640,975	-0,045	-0,083
-556,700	17,961	-0,118	-0,068
-555,685	-107,290	0,113	-0,018
-554,671	77,270	-0,036	0,028
-553,656	-200,000	-0,010	0,120
-552,642	203,425	-0,016	0,018
-551,627	-181,753	0,054	0,001
-550,612	290,291	0,058	-0,077
-549,598	-200,000	-0,003	-0,012
-548,583	-200,000	-0,002	-0,102
-547,569	800,000	-0,006	-0,013
-546,554	-78,377	0,141	0,035
-545,539	225,278	0,080	0,094
-544,525	-4,474	0,036	-0,018
-543,510	-200,000	-0,017	-0,149
-542,496	38,761	-0,052	0,034
-541,481	-129,471	-0,079	0,008
-540,466	-104,819	0,066	-0,011
-539,452	194,107	0,063	0,070
-538,437	-123,063	0,022	-0,003
-537,423	-200,000	-0,012	0,049
-536,408	135,537	-0,037	-0,036
-535,393	12,154	-0,131	-0,074
-534,379	-200,000	-0,026	-0,158
-533,364	99,005	-0,061	-0,052
-532,350	7,771	0,087	-0,048
-531,335	176,536	0,064	-0,068
-530,321	-200,000	-0,021	0,169
-529,306	-163,162	0,069	0,002
-528,291	-200,000	-0,007	-0,135
-527,277	54,523	0,029	-0,020
-526,262	-98,317	-0,102	-0,019
-525,248	800,000	0,039	-0,094
-524,233	-200,000	-0,017	-0,123
-523,218	-200,000	-0,053	-0,000
-522,204	800,000	0,018	0,044
-521,189	-200,000	-0,012	-0,091
-520,175	82,835	-0,179	-0,142
-519,160	-76,390	0,067	0,017
-518,145	-95,081	0,075	-0,015
-517,131	800,000	-0,015	-0,038
-516,116	-28,828	-0,048	-0,020
-515,102	-113,946	-0,043	0,006
-514,087	0,439	0,009	-0,005
-513,072	800,000	-0,026	-0,066
-512,058	800,000	0,028	0,058
-511,043	49,318	0,066	0,045
-510,029	-93,377	0,099	-0,020
-509,014	800,000	0,043	0,108
-507,999	-18,542	0,072	0,033
-506,985	-200,000	0,057	0,191
-505,970	503,163	-0,113	0,192
-504,956	250,686	0,009	0,011
-503,941	382,583	-0,047	-0,070
-502,926	427,838	0,071	-0,112
-501,912	-98,158	0,071	0,013
-500,897	800,000	0,028	-0,071
-499,883	-116,239	-0,048	0,006
-498,868	-17,775	-0,188	-0,086
-497,853	75,561	-0,117	-0,090
-496,839	-105,687	0,070	-0,011
-495,824	211,452	0,075	0,086
-494,810	-34,291	0,046	0,018
-493,795	76,015	0,025	0,019
-492,781	-200,000	-0,045	-0,207
-491,766	339,303	0,047	-0,067
-490,751	-200,000	0,010	-0,057
-489,737	198,428	0,064	0,071
-488,722	38,767	-0,043	0,028
-487,708	152,745	0,081	0,081
-486,693	4,863	0,079	0,042
-485,678	-123,811	0,097	0,011
-484,664	-200,000	0,012	0,096
-483,649	1,306	-0,112	-0,058
-482,635	774,082	-0,031	-0,062
-481,620	-200,000	0,140	0,000
-480,605	497,634	-0,053	0,089
-479,591	489,437	0,073	-0,122
-478,576	-118,857	-0,102	-0,013
-477,562	-103,143	-0,046	0,008
-476,547	-72,861	-0,120	-0,032
-475,532	-200,000	0,034	-0,124
-474,518	42,050	0,053	0,035
-473,503	745,187	0,047	-0,093
-472,489	-5,290	-0,094	0,047
-471,474	-200,000	-0,004	-0,105
-470,459	-61,627	-0,093	0,028
-469,445	294,164	0,030	0,041
-468,430	66,668	-0,061	-0,046
-467,416	-186,826	0,116	-0,001
-466,401	-200,000	-0,022	0,090
-465,386	56,203	-0,095	0,067
-464,372	464,454	-0,012	0,019
-463,357	800,000	-0,032	0,080
-462,343	800,000	0,034	-0,079
-461,328	-200,000	-0,036	-0,240
-460,313	435,491	-0,089	-0,141
-459,299	-200,000	0,018	-0,100
-458,284	800,000	0,002	-0,006
-457,270	-79,713	0,066	0,016
-456,255	-26,416	0,089	-0,038
-455,241	800,000	-0,022	0,055
-454,226	-200,000	-0,009	0,086
-453,211	-200,000	-0,012	0,095
-452,197	-200,000	-0,006	0,075
-451,182	346,359	0,009	0,013
-450,168	496,909	-0,020	-0,033
-449,153	-200,000	-0,009	0,114
-448,138	-200,000	0,003	-0,100
-447,124	-8,397	-0,060	-0,029
-446,109	800,000	0,035	-0,103
-445,095	-200,000	0,004	0,108
-444,080	195,783	-0,056	0,062
-443,065	-88,483	-0,038	0,008
-442,051	-64,324	-0,045	0,013
-441,036	-18,551	-0,214	-0,097
-440,022	800,000	0,040	-0,090
-439,007	-200,000	0,030	0,127
-437,992	163,275	-0,028	0,029
-436,978	594,593	0,050	-0,090
-435,963	-153,761	-0,048	0,002
-434,949	-60,052	-0,034	0,011
-433,934	226,726	0,083	0,099
-432,919	-96,080	0,130	0,025
-431,905	-55,856	-0,078	0,025
-430,890	-200,000	-0,011	-0,043
-429,876	800,000	-0,035	0,075
-428,861	-103,455	-0,086	-0,015
-427,846	87,193	0,100	0,080
-426,832	-200,000	-0,022	-0,086
-425,817	-88,304	-0,051	0,011
-424,803	173,569	-0,032	-0,034
-423,788	-76,708	0,133	0,034
-422,773	-200,000	-0,008	-0,101
-421,759	184,530	0,022	0,024
-420,744	-56,044	0,095	0,031
-419,730	-90,546	0,051	-0,011
-418,715	75,396	0,099	-0,076
-417,701	800,000	0,041	-0,084
-416,686	-37,492	-0,065	0,025
-415,671	758,638	-0,058	0,114
-414,657	175,158	0,044	0,047
-413,642	244,749	0,004	0,005
-412,628	-166,294	-0,174	0,005
-411,613	-200,000	0,011	0,077
-410,598	-4,229	-0,037	0,019
-409,584	-49,753	0,088	-0,030
-408,569	800,000	0,060	-0,122
-407,555	-200,000	-0,003	0,025
-406,540	-200,000	0,000	-0,096
-405,525	486,047	-0,062	0,104
-404,511	57,039	0,044	-0,031
-403,496	-78,470	-0,080	-0,020
-402,482	-200,000	0,025	0,132
-401,467	-72,018	0,085	0,023
-400,452	51,203	-0,030	0,020
-399,438	-200,000	-0,014	0,048
-398,423	190,127	-0,122	0,133
-397,409	143,113	-0,015	0,015
-396,394	464,352	-0,039	-0,064
-395,379	67,678	0,042	0,031
-394,365	-176,892	-0,100	-0,002
-393,350	-200,000	-0,043	0,219
-392,336	6,774	0,065	0,035
-391,321	800,000	0,010	-0,022
-390,306	-43,875	-0,030	-0,011
-389,292	-200,000	0,013	-0,081
-388,277	-200,000	-0,025	0,086
-387,263	-100,875	0,154	-0,027
-386,248	-175,147	0,062	0,001
-385,233	360,879	-0,080	-0,117
-384,219	-200,000	-0,005	-0,104
-383,204	800,000	0,039	0,100
-382,190	126,963	-0,043	0,039
-381,175	-200,000	-0,011	0,113
-380,160	0,815	0,140	0,073
-379,146	92,392	-0,043	-0,035
-378,131	203,253	-0,018	-0,020
-377,117	-200,000	0,012	0,076
-376,102	192,587	-0,054	-0,059
-375,088	319,661	-0,023	-0,032
-374,073	23,120	-0,139	-0,082
-373,058	-200,000	0,007	0,100
-372,044	800,000	0,058	0,149
-371,029	-200,000	-0,019	-0,091
-370,015	-151,290	-0,117	-0,006
-369,000	46,945	-0,080	-0,054
-367,985	-91,950	-0,152	0,031
-366,971	-46,063	0,057	0,020
-365,956	-200,000	0,006	-0,034
-364,942	-106,445	0,107	0,017
-363,927	800,000	-0,024	-0,075
-362,912	206,756	-0,035	0,040
-361,898	285,883	-0,062	0,082
-360,883	10,153	0,230	0,126
-359,869	-75,217	-0,087	0,022
-358,854	-41,370	-0,148	0,055
-357,839	101,570	0,055	-0,046
-356,825	-120,459	0,134	0,016
-355,810	-95,050	-0,114	0,022
-354,796	-118,800	-0,079	0,010
-353,781	-200,000	0,012	-0,058
-352,766	60,902	-0,071	-0,051
-351,752	-37,070	0,132	-0,051
-350,737	270,042	0,070	0,090
-349,723	800,000	0,039	0,108
-348,708	356,528	-0,061	-0,088
-347,693	222,213	-0,083	-0,098
-346,679	-200,000	-0,017	0,067
-345,664	441,632	0,026	0,041
-344,650	-200,000	0,005	0,071
-343,635	540,572	0,047	0,081
-342,620	-105,758	-0,114	-0,018
-341,606	72,322	0,080	0,061
-340,591	-126,579	-0,054	0,006
-339,577	-200,000	-0,043	0,143
-338,562	-62,314	-0,122	0,036
-337,548	46,760	0,077	-0,052
-336,533	-200,000	-0,004	-0,053
-335,518	-200,000	0,005	0,109
-334,504	126,829	-0,071	0,065
-333,489	-6,796	-0,101	0,050
-332,475	299,502	-0,069	-0,093
-331,460	66,838	0,079	-0,058
-330,445	-107,716	0,065	0,010
-329,431	-24,785	0,106	-0,045
-328,416	-69,898	0,168	0,046
-327,402	178,333	0,032	0,034
-326,387	-49,413	-0,065	0,022
-325,372	88,984	-0,066	-0,053
-324,358	-91,514	0,047	-0,010
-323,343	-200,000	-0,002	0,064
-322,329	-200,000	0,012	0,000
-321,314	306,233	0,015	0,021
-320,299	-200,000	0,010	0,090
-319,285	-35,094	-0,083	0,033
-318,270	-69,519	-0,023	0,006
-317,256	-83,735	0,214	0,049
-316,241	-1,944	-0,085	-0,043
-315,226	-113,100	-0,055	-0,008
-314,212	-5,834	0,138	0,068
-313,197	69,404	-0,056	0,041
-312,183	-200,000	0,020	-0,118
-311,168	-33,380	0,039	0,015
-310,153	-77,620	-0,156	0,039
-309,139	-15,522	0,062	-0,028
-308,124	98,110	-0,093	-0,077
-307,110	-83,005	0,163	-0,038
-306,095	-200,000	0,020	0,169
-305,080	101,503	0,072	0,061
-304,066	146,405	0,023	0,022
-303,051	-13,392	0,101	-0,047
-302,037	756,204	0,032	-0,064
-301,022	-200,000	0,008	-0,042
-300,008	-200,000	-0,001	0,020
-298,993	352,851	0,044	0,064
-297,978	407,827	0,017	-0,026
-296,964	85,424	-0,076	0,060
-295,949	-66,595	0,035	0,010
-294,935	429,297	0,057	-0,089
-293,920	35,856	-0,023	-0,015
-292,905	26,782	-0,070	0,043
-291,891	-85,955	0,040	0,009
-290,876	-200,000	0,003	-0,073
-289,862	-200,000	0,001	0,009
-288,847	303,931	-0,060	0,081
-287,832	-30,614	-0,043	-0,018
-286,818	-131,737	-0,027	0,003
-285,803	-82,106	0,083	-0,020
-284,789	27,344	0,122	0,074
-283,774	800,000	-0,021	0,052
-282,759	-200,000	0,002	0,009
-281,745	257,535	0,099	-0,123
-280,730	-200,000	-0,017	-0,097
-279,716	800,000	0,061	-0,159
-278,701	-200,000	-0,020	0,085
-277,686	86,860	0,070	0,056
-276,672	50,150	0,031	0,021
-275,657	-200,000	-0,003	0,063
-274,643	800,000	0,007	0,023
-273,628	-200,000	0,000	-0,070
-272,613	81,632	-0,049	-0,039
-271,599	-98,709	-0,046	-0,008
-270,584	216,612	0,068	-0,079
-269,570	78,820	0,017	-0,013
-268,555	-95,685	-0,066	-0,013
-267,540	-200,000	-0,009	0,046
-266,526	407,081	0,014	0,021
-265,511	-100,557	-0,031	-0,006
-264,497	-81,666	0,112	0,026
-263,482	719,082	-0,006	0,012
-262,467	-88,826	0,144	0,031
-261,453	-200,000	-0,026	-0,090
-260,438	-37,074	-0,072	-0,028
-259,424	800,000	-0,043	0,126
-258,409	-200,000	-0,013	-0,054
-257,395	-53,888	-0,040	-0,013
-256,380	-126,070	0,080	-0,009
-255,365	384,687	0,079	0,117
-254,351	-149,490	-0,089	0,005
-253,336	110,753	-0,075	-0,065
-252,322	207,653	-0,153	-0,173
-251,307	-13,655	0,031	-0,014
-250,292	34,778	0,070	0,044
-249,278	93,604	0,212	0,173
-248,263	116,954	-0,130	0,116
-247,249	119,705	-0,133	-0,119
-246,234	11,985	0,070	-0,039
-245,219	800,000	-0,052	-0,138
-244,205	-91,578	0,064	-0,013
-243,190	119,227	0,043	0,038
-242,176	-9,275	0,039	-0,019
-241,161	6,512	0,033	-0,018
-240,146	31,314	0,060	0,037
-239,132	-200,000	-0,019	0,076
-238,117	-200,000	0,012	-0,049
-237,103	-200,000	0,013	-0,045
-236,088	-200,000	0,007	-0,085
-235,073	78,628	-0,011	0,009
-234,059	162,627	-0,044	0,045
-233,044	800,000	-0,063	-0,140
-232,030	-108,062	-0,057	-0,009
-231,015	-200,000	-0,035	-0,155
-230,000	-200,000	0,023	-0,178
-228,986	-6,524	-0,038	0,019
-227,971	257,969	-0,058	-0,073
-226,957	-88,930	0,181	0,038
-225,942	-94,152	0,059	-0,012
-224,927	-200,000	0,006	-0,032
-223,913	-200,000	-0,091	0,000
-222,898	-139,783	-0,109	-0,008
-221,884	-62,419	0,083	0,025
-220,869	362,001	-0,049	0,072
-219,855	-200,000	-0,043	0,186
-218,840	73,069	0,082	-0,062
-217,825	733,510	0,020	-0,039
-216,811	-120,872	-0,139	0,017
-215,796	190,523	-0,030	-0,033
-214,782	-20,525	-0,039	0,017
-213,767	800,000	0,032	0,085
-212,752	-108,699	0,174	0,027
-211,738	-200,000	0,011	0,056
-210,723	800,000	0,018	0,055
-209,709	-200,000	-0,009	-0,042
-208,694	474,625	-0,039	-0,064
-207,679	335,820	0,075	-0,105
-206,665	-103,930	0,083	0,014
-205,650	126,507	0,025	-0,023
-204,636	114,975	0,083	0,073
-203,621	183,419	-0,026	0,027
-202,606	357,916	-0,041	0,059
-201,592	-200,000	-0,010	-0,034
-200,577	256,246	-0,028	-0,034
-199,563	-200,000	0,016	-0,075
-198,548	295,101	0,035	0,047
-197,533	-200,000	0,011	-0,035
-196,519	-200,000	-0,004	-0,134
-195,504	-120,248	-0,080	0,010
-194,490	61,258	0,074	0,053
-193,475	-117,592	0,126	-0,016
-192,460	20,345	0,029	0,017
-191,446	130,337	-0,066	0,061
-190,431	335,194	0,094	0,132
-189,417	-19,903	0,085	-0,038
-188,402	474,329	-0,085	0,140
-187,387	143,262	-0,057	0,055
-186,373	204,330	-0,047	-0,052
-185,358	800,000	0,036	0,102
-184,344	-20,033	0,058	0,026
-183,329	-200,000	-0,000	0,175
-182,315	-61,447	0,069	0,021
-181,300	-200,000	0,001	0,095
-180,285	556,948	-0,033	0,057
-179,271	800,000	0,019	-0,059
-178,256	-13,332	-0,012	-0,005
-177,242	85,063	0,113	0,089
-176,227	-106,829	0,077	-0,012
-175,212	-99,155	0,073	-0,013
-174,198	-69,855	-0,028	0,008
-173,183	-25,932	-0,128	0,054
-172,169	-41,764	-0,071	-0,026
-171,154	18,864	-0,078	-0,045
-170,139	194,114	-0,048	-0,052
-169,125	329,753	0,080	0,111
-168,110	382,419	-0,042	0,063
-167,096	82,723	-0,026	-0,020
-166,081	6,096	-0,033	-0,017
-165,066	590,297	-0,046	-0,082
-164,052	-103,053	0,072	0,012
-163,037	-200,000	-0,008	-0,068
-162,023	607,784	0,046	0,082
-161,008	124,933	-0,063	0,057
-159,993	-14,954	0,036	0,017
-158,979	-117,763	-0,030	-0,004
-157,964	-200,000	-0,007	-0,071
-156,950	800,000	0,042	-0,106
-155,935	-200,000	-0,004	-0,041
-154,920	-176,492	0,067	0,001
-153,906	-66,658	0,020	0,006
-152,891	-200,000	-0,000	0,043
-151,877	-200,000	-0,014	-0,061
-150,862	-200,000	0,009	-0,047
-149,847	800,000	-0,046	0,105
-148,833	-63,371	-0,081	-0,024
-147,818	4,512	-0,067	0,035
-146,804	-31,315	0,046	-0,019
-145,789	-74,014	0,201	0,052
-144,775	800,000	0,005	-0,013
-143,760	-200,000	-0,045	-0,197
-142,745	281,991	0,015	-0,020
-141,731	738,409	-0,082	-0,160
-140,716	92,127	0,033	-0,027
-139,702	800,000	0,050	0,121
-138,687	-200,000	0,006	0,035
-137,672	-200,000	-0,003	-0,060
-136,658	-45,393	0,080	-0,028
-135,643	-200,000	-0,010	-0,079
-134,629	-73,616	0,188	-0,049
-133,614	-103,129	0,043	0,007
-132,599	800,000	-0,039	-0,092
-131,585	45,482	0,042	-0,028
-130,570	-200,000	-0,002	-0,136
-129,556	237,719	-0,075	-0,090
-128,541	-200,000	-0,016	0,061
-127,526	800,000	-0,062	-0,136
-126,512	800,000	0,043	0,099
-125,497	-103,380	-0,060	-0,010
-124,483	-91,288	0,060	-0,012
-123,468	527,630	-0,031	-0,053
-122,453	40,255	-0,146	-0,095
-121,439	-200,000	0,015	-0,102
-120,424	800,000	-0,011	-0,030
