DTS Sentinel unit serial number:	SN410029Multiplexer serial number:	ORYXHardware model number:	OX2-SRSoftware version number:	ORYX F/W v4,00 Oryx Data Collector v3.7.2.0data status	okinstallation	B6 Nyhavnadifferential loss correction	single-endedforward channel	channel 2reverse channel	N/Adate	2023/12/10time	17:05:08forward acquisition time	300,00reverse acquisition time	0,00gamma	499,1914k internal	0,3123k external	0,3123temperature offset calibration	1,0000default loss term (dB/km)	0,3820temperature slope calibration	1,0000multiplexer offset coefficient	1,0000multiplexer slope coefficient	1,0000fibre end	0,00T internal ref (°C)	22,41T ext. ref 1 (°C)	6,15T ext. ref 2 (°C)	6,16length (m)	temperature (°C)	Stokes	anti-Stokes-744,400	-200,000	0,004	0,046
-743,385	569,465	-0,109	0,198
-742,371	312,938	0,021	-0,030
-741,356	8,677	-0,303	0,170
-740,342	800,000	0,061	0,184
-739,327	-61,624	-0,336	0,104
-738,312	693,221	0,029	-0,057
-737,298	-104,364	-0,190	0,033
-736,283	-15,212	0,222	-0,105
-735,269	800,000	-0,114	0,260
-734,254	800,000	0,010	-0,022
-733,239	-77,070	-0,369	-0,095
-732,225	-145,076	0,128	-0,009
-731,210	-51,252	-0,007	0,002
-730,196	-7,598	-0,042	-0,021
-729,181	-71,878	-0,122	0,034
-728,167	-200,000	0,001	0,058
-727,152	-200,000	-0,014	-0,109
-726,137	-134,851	-0,017	-0,002
-725,123	175,523	0,016	0,017
-724,108	545,342	-0,077	-0,138
-723,094	50,501	0,043	-0,031
-722,079	608,112	0,042	-0,078
-721,064	-76,923	-0,040	0,010
-720,050	-89,749	0,054	0,012
-719,035	-78,170	-0,048	-0,012
-718,021	-110,503	-0,154	-0,024
-717,006	273,538	0,061	-0,080
-715,991	-45,577	-0,093	-0,034
-714,977	-142,027	0,175	-0,013
-713,962	-104,102	-0,049	0,008
-712,948	-73,914	-0,141	-0,038
-711,933	37,743	0,051	0,034
-710,918	-60,672	0,068	0,021
-709,904	-160,202	-0,068	0,003
-708,889	-200,000	-0,027	-0,123
-707,875	225,392	-0,052	-0,063
-706,860	478,147	0,075	0,127
-705,845	774,316	0,051	-0,103
-704,831	674,744	-0,011	-0,021
-703,816	774,423	-0,025	-0,052
-702,802	-200,000	-0,005	-0,048
-701,787	-91,537	-0,111	0,023
-700,772	126,128	-0,068	-0,064
-699,758	83,067	0,037	-0,030
-698,743	2,490	-0,069	-0,037
-697,729	800,000	-0,048	0,156
-696,714	77,067	0,186	0,147
-695,699	165,203	-0,076	-0,080
-694,685	367,627	-0,019	0,029
-693,670	153,614	-0,113	0,115
-692,656	-91,129	-0,078	0,016
-691,641	366,668	0,059	-0,089
-690,627	-200,000	0,030	-0,116
-689,612	-200,000	0,007	-0,071
-688,597	800,000	-0,038	-0,104
-687,583	209,143	-0,065	-0,075
-686,568	-139,856	-0,081	-0,006
-685,554	800,000	0,017	0,041
-684,539	-112,742	-0,123	-0,018
-683,524	-26,018	-0,035	0,015
-682,510	-78,563	-0,078	0,020
-681,495	-71,310	-0,084	-0,023
-680,481	426,840	-0,031	-0,050
-679,466	-62,291	-0,022	-0,007
-678,451	-200,000	-0,002	0,058
-677,437	151,965	0,141	0,143
-676,422	-115,808	0,074	0,010
-675,408	800,000	0,021	-0,056
-674,393	-51,625	-0,141	-0,049
-673,378	-168,157	0,046	0,001
-672,364	800,000	0,010	-0,022
-671,349	-10,839	-0,097	0,048
-670,335	-200,000	0,016	0,194
-669,320	444,923	0,074	-0,122
-668,305	799,784	0,047	-0,097
-667,291	286,727	-0,020	0,026
-666,276	-200,000	-0,029	-0,194
-665,262	800,000	-0,050	-0,129
-664,247	166,126	-0,071	-0,075
-663,232	659,286	-0,031	-0,059
-662,218	-83,045	-0,057	-0,014
-661,203	98,664	-0,054	-0,046
-660,189	-86,279	0,066	-0,015
-659,174	-200,000	-0,008	-0,094
-658,159	-200,000	-0,031	-0,102
-657,145	-40,676	0,009	-0,004
-656,130	503,495	-0,034	0,059
-655,116	-45,968	0,099	-0,036
-654,101	-200,000	-0,004	-0,060
-653,086	328,913	0,069	-0,099
-652,072	-200,000	-0,011	-0,072
-651,057	426,131	0,039	-0,063
-650,043	433,165	-0,084	-0,137
-649,028	-200,000	-0,007	-0,095
-648,014	96,727	0,134	-0,114
-646,999	755,194	-0,052	0,105
-645,984	-200,000	-0,016	0,193
-644,970	-58,433	0,016	0,005
-643,955	293,036	-0,079	-0,107
-642,941	205,133	-0,046	-0,053
-641,926	578,715	0,050	0,091
-640,911	-200,000	-0,009	-0,037
-639,897	-79,961	0,036	0,009
-638,882	46,267	0,118	0,081
-637,868	800,000	-0,006	0,014
-636,853	-51,204	-0,108	-0,037
-635,838	-121,112	-0,094	0,012
-634,824	-200,000	-0,010	-0,129
-633,809	-61,387	-0,036	-0,011
-632,795	-200,000	-0,005	0,092
-631,780	-37,322	-0,026	0,010
-630,765	-200,000	0,001	0,036
-629,751	-162,133	-0,093	0,003
-628,736	-200,000	0,008	-0,149
-627,722	155,907	0,139	-0,142
-626,707	-6,415	-0,071	-0,036
-625,692	26,040	0,004	0,003
-624,678	-200,000	0,001	-0,046
-623,663	7,965	0,103	-0,057
-622,649	-83,690	-0,091	0,021
-621,634	-200,000	0,015	-0,085
-620,619	24,551	-0,119	0,073
-619,605	296,924	-0,037	0,050
-618,590	-200,000	-0,014	0,073
-617,576	-142,949	0,030	0,002
-616,561	265,957	-0,050	0,064
-615,546	91,058	-0,029	-0,024
-614,532	800,000	-0,011	-0,032
-613,517	-67,008	-0,033	0,010
-612,503	-200,000	-0,028	-0,093
-611,488	378,266	0,083	0,126
-610,474	131,605	0,101	-0,096
-609,459	583,636	-0,025	-0,046
-608,444	800,000	0,037	0,078
-607,430	800,000	-0,032	-0,084
-606,415	-87,492	-0,061	0,014
-605,401	800,000	-0,050	0,105
-604,386	800,000	0,020	-0,051
-603,371	221,760	-0,040	0,047
-602,357	-156,222	-0,037	-0,002
-601,342	-88,377	0,089	-0,020
-600,328	-200,000	-0,007	-0,052
-599,313	105,829	-0,135	-0,118
-598,298	355,235	0,051	-0,075
-597,284	111,479	0,085	0,076
-596,269	-200,000	-0,010	-0,070
-595,255	-200,000	-0,005	-0,109
-594,240	-200,000	0,004	-0,034
-593,225	88,499	-0,064	-0,053
-592,211	-200,000	-0,028	-0,196
-591,196	-79,767	0,083	-0,020
-590,182	-130,005	0,161	0,016
-589,167	567,721	0,071	0,128
-588,152	-122,811	-0,101	0,012
-587,138	99,740	0,151	-0,130
-586,123	484,501	-0,118	-0,200
-585,109	800,000	0,023	0,054
-584,094	800,000	-0,068	0,160
-583,079	-16,602	-0,050	0,023
-582,065	80,338	0,090	0,072
-581,050	138,834	-0,101	0,099
-580,036	-58,937	-0,131	-0,042
-579,021	401,706	0,094	-0,147
-578,006	143,737	-0,028	-0,028
-576,992	-9,758	-0,072	-0,036
-575,977	-200,000	-0,016	-0,083
-574,963	-116,347	0,110	0,015
-573,948	-200,000	0,000	-0,001
-572,934	523,042	0,063	-0,110
-571,919	470,188	-0,063	-0,106
-570,904	-53,550	0,159	0,053
-569,890	-56,572	-0,103	-0,034
-568,875	206,468	-0,025	-0,029
-567,861	-200,000	0,022	0,115
-566,846	-111,267	-0,061	0,009
-565,831	-39,780	0,131	0,051
-564,817	-145,896	-0,181	0,012
-563,802	-79,398	-0,143	-0,036
-562,788	800,000	0,024	-0,069
-561,773	-41,220	0,167	0,064
-560,758	-200,000	-0,005	-0,041
-559,744	800,000	0,048	-0,127
-558,729	449,741	-0,023	0,038
-557,715	65,961	-0,173	-0,130
-556,700	597,207	-0,069	-0,127
-555,685	192,314	-0,073	-0,082
-554,671	-120,536	-0,121	0,015
-553,656	-88,068	0,089	0,020
-552,642	-1,171	0,111	-0,058
-551,627	277,612	-0,017	0,022
-550,612	-18,055	0,085	-0,039
-549,598	800,000	-0,007	0,023
-548,583	203,719	-0,090	-0,103
-547,569	112,764	-0,086	0,077
-546,554	800,000	0,045	0,102
-545,539	-74,215	-0,106	-0,028
-544,525	107,442	0,028	-0,025
-543,510	-118,944	-0,077	0,010
-542,496	-22,602	0,065	-0,029
-541,481	800,000	0,022	0,067
-540,466	369,373	0,072	-0,108
-539,452	-200,000	0,028	0,158
-538,437	-200,000	0,005	0,160
-537,423	-132,032	0,099	-0,009
-536,408	-200,000	0,017	-0,161
-535,393	-168,844	-0,067	-0,002
-534,379	-200,000	0,003	-0,090
-533,364	247,516	0,017	0,022
-532,350	-97,298	-0,104	-0,020
-531,335	-200,000	0,003	-0,142
-530,321	800,000	-0,075	0,187
-529,306	-43,633	-0,166	0,062
-528,291	-200,000	0,021	-0,079
-527,277	588,110	-0,073	-0,133
-526,262	412,051	-0,055	-0,087
-525,248	800,000	0,038	0,101
-524,233	-57,405	0,084	-0,027
-523,218	-48,875	-0,063	0,022
-522,204	53,868	0,089	-0,063
-521,189	-200,000	0,023	0,096
-520,175	1,950	-0,044	-0,023
-519,160	-200,000	-0,010	-0,089
-518,145	800,000	-0,045	-0,125
-517,131	-126,857	0,074	0,008
-516,116	-200,000	0,015	-0,048
-515,102	-20,807	-0,101	0,045
-514,087	104,921	0,061	0,053
-513,072	800,000	-0,042	-0,118
-512,058	239,050	-0,053	-0,065
-511,043	-200,000	-0,002	-0,005
-510,029	81,136	-0,052	-0,041
-509,014	-129,972	0,059	0,006
-507,999	-200,000	0,013	0,088
-506,985	-146,091	-0,030	0,002
-505,970	800,000	-0,015	-0,037
-504,956	196,342	0,038	-0,042
-503,941	-67,619	0,054	-0,015
-502,926	263,783	0,041	-0,053
-501,912	356,103	0,037	0,055
-500,897	-200,000	0,015	0,148
-499,883	205,235	0,065	0,074
-498,868	148,027	-0,099	0,099
-497,853	205,339	0,020	0,023
-496,839	188,089	-0,036	-0,040
-495,824	800,000	-0,017	-0,037
-494,810	800,000	-0,048	-0,107
-493,795	-200,000	0,000	-0,091
-492,781	-200,000	0,008	-0,055
-491,766	72,166	-0,072	0,055
-490,751	-26,934	-0,082	0,035
-489,737	-200,000	0,021	-0,071
-488,722	-141,514	0,122	0,009
-487,708	-200,000	-0,026	0,110
-486,693	84,001	-0,035	0,028
-485,678	800,000	-0,030	-0,088
-484,664	-169,192	0,093	0,002
-483,649	-200,000	-0,028	-0,187
-482,635	800,000	0,032	0,077
-481,620	122,451	0,063	0,058
-480,605	-200,000	0,006	-0,115
-479,591	-200,000	-0,004	0,067
-478,576	-134,623	0,075	-0,007
-477,562	78,223	0,078	-0,062
-476,547	800,000	-0,074	-0,171
-475,532	-171,359	0,122	-0,003
-474,518	312,523	0,127	0,177
-473,503	-200,000	0,007	0,114
-472,489	195,398	0,055	-0,061
-471,474	642,889	0,043	0,081
-470,459	-121,121	-0,173	-0,021
-469,445	-200,000	0,021	0,189
-468,430	40,254	0,085	0,056
-467,416	-200,000	0,050	0,167
-466,401	148,648	0,067	0,067
-465,386	401,939	-0,032	0,050
-464,372	119,890	0,077	-0,070
-463,357	-96,480	-0,044	-0,008
-462,343	-128,301	0,032	-0,003
-461,328	-200,000	0,033	0,177
-460,313	205,186	-0,046	-0,053
-459,299	-200,000	0,025	0,095
-458,284	117,234	0,110	0,100
-457,270	-200,000	-0,025	-0,117
-456,255	40,161	-0,057	0,038
-455,241	-200,000	-0,001	-0,060
-454,226	800,000	0,071	-0,210
-453,211	137,248	0,080	0,077
-452,197	42,955	0,005	0,003
-451,182	-198,407	0,221	-0,001
-450,168	387,571	0,048	0,073
-449,153	256,140	0,040	-0,050
-448,138	-128,624	0,045	0,005
-447,124	425,814	-0,064	-0,102
-446,109	59,137	-0,051	-0,037
-445,095	-200,000	0,017	0,081
-444,080	-138,916	0,148	-0,012
-443,065	800,000	0,021	0,044
-442,051	-200,000	-0,009	-0,048
-441,036	-200,000	-0,027	-0,108
-440,022	-58,109	-0,102	0,033
-439,007	179,137	0,102	0,111
-437,992	-98,970	-0,040	0,007
-436,978	-200,000	0,000	0,175
-435,963	249,559	-0,062	0,077
-434,949	-112,529	-0,179	0,026
-433,934	800,000	-0,022	-0,061
-432,919	800,000	-0,047	-0,138
-431,905	-43,347	-0,075	-0,028
-430,890	-181,558	0,074	0,001
-429,876	392,976	0,033	0,051
-428,861	205,465	0,018	0,021
-427,846	-79,746	0,059	0,014
-426,832	-200,000	-0,007	-0,055
-425,817	87,749	-0,032	-0,026
-424,803	-200,000	0,003	0,040
-423,788	66,860	-0,095	0,071
-422,773	800,000	0,036	0,108
-421,759	-117,760	0,024	-0,003
-420,744	-200,000	-0,022	-0,094
-419,730	-200,000	0,005	-0,065
-418,715	181,889	-0,135	-0,146
-417,701	-141,021	-0,070	0,005
-416,686	-200,000	0,008	0,117
-415,671	-200,000	0,004	0,136
-414,657	-200,000	0,002	-0,017
-413,642	-200,000	-0,002	-0,109
-412,628	-10,529	0,040	0,019
-411,613	57,451	0,108	-0,077
-410,598	800,000	0,012	-0,036
-409,584	5,077	0,173	-0,093
-408,569	290,769	0,125	0,168
-407,555	-200,000	-0,001	-0,055
-406,540	-162,887	0,116	0,004
-405,525	800,000	-0,040	-0,105
-404,511	431,089	-0,030	-0,047
-403,496	214,149	-0,063	-0,073
-402,482	-200,000	-0,009	0,065
-401,467	800,000	0,027	0,080
-400,452	-200,000	0,017	-0,086
-399,438	-183,309	-0,059	-0,001
-398,423	800,000	0,043	-0,109
-397,409	547,012	0,015	-0,027
-396,394	-46,612	-0,162	0,058
-395,379	598,505	-0,030	0,054
-394,365	-29,305	-0,080	-0,034
-393,350	-38,089	0,024	0,010
-392,336	41,589	-0,098	-0,065
-391,321	-32,564	-0,090	-0,037
-390,306	800,000	-0,034	0,082
-389,292	358,996	0,045	-0,067
-388,277	-52,929	0,057	0,019
-387,263	-200,000	0,029	0,133
-386,248	83,208	0,045	0,036
-385,233	72,489	0,042	0,032
-384,219	225,079	0,005	-0,006
-383,204	430,488	0,029	-0,046
-382,190	33,164	-0,083	-0,053
-381,175	91,140	0,022	-0,018
-380,160	-200,000	0,000	-0,013
-379,146	119,254	0,150	0,136
-378,131	138,149	-0,096	-0,092
-377,117	-200,000	-0,003	0,047
-376,102	-173,811	-0,175	0,004
-375,088	-200,000	-0,001	-0,109
-374,073	290,958	-0,019	0,026
-373,058	313,923	-0,032	0,045
-372,044	77,124	0,172	0,134
-371,029	268,143	-0,083	0,108
-370,015	800,000	0,041	0,124
-369,000	146,662	-0,133	0,132
-367,985	36,445	0,081	-0,052
-366,971	375,065	-0,054	0,082
-365,956	253,320	-0,038	0,048
-364,942	14,776	-0,029	-0,017
-363,927	438,607	-0,043	0,069
-362,912	9,960	-0,099	0,055
-361,898	42,866	-0,065	-0,043
-360,883	-153,511	-0,041	-0,002
-359,869	51,474	0,086	0,060
-358,854	-57,903	0,026	0,008
-357,839	800,000	-0,026	-0,065
-356,825	-122,020	0,040	0,005
-355,810	-105,225	-0,112	-0,019
-354,796	-200,000	0,007	0,068
-353,781	-103,520	-0,112	0,019
-352,766	-200,000	0,007	0,036
-351,752	-120,483	0,030	0,004
-350,737	154,965	0,128	-0,130
-349,723	-200,000	0,029	0,105
-348,708	28,720	-0,014	0,009
-347,693	-92,672	0,127	0,026
-346,679	-200,000	0,010	-0,154
-345,664	151,668	0,100	0,100
-344,650	-200,000	-0,010	-0,034
-343,635	70,236	0,091	0,069
-342,620	-13,978	0,159	0,075
-341,606	78,763	0,096	-0,076
-340,591	96,698	-0,085	-0,071
-339,577	800,000	-0,040	0,095
-338,562	-200,000	0,004	0,057
-337,548	800,000	-0,034	-0,069
-336,533	167,639	0,037	-0,039
-335,518	91,565	-0,024	0,020
-334,504	-1,525	0,152	-0,078
-333,489	-200,000	0,014	0,062
-332,475	559,456	-0,041	-0,073
-331,460	225,388	-0,061	0,073
-330,445	725,336	-0,034	0,067
-329,431	30,085	0,138	-0,086
-328,416	228,313	-0,066	-0,079
-327,402	800,000	0,018	0,041
-326,387	120,573	0,044	0,040
-325,372	-70,340	0,175	-0,048
-324,358	257,390	0,051	0,064
-323,343	712,229	-0,024	-0,047
-322,329	-200,000	-0,007	0,076
-321,314	800,000	0,008	0,019
-320,299	800,000	0,053	0,113
-319,285	800,000	0,026	0,077
-318,270	-200,000	0,001	-0,088
-317,256	375,341	-0,058	-0,088
-316,241	55,568	0,038	-0,027
-315,226	500,199	-0,044	0,075
-314,212	800,000	0,016	-0,039
-313,197	72,046	0,051	0,039
-312,183	800,000	0,049	0,124
-311,168	171,395	0,046	0,049
-310,153	460,820	-0,046	0,075
-309,139	-56,883	0,024	-0,008
-308,124	-179,647	0,091	0,001
-307,110	-84,403	-0,041	0,009
-306,095	307,306	0,062	0,085
-305,080	-200,000	-0,017	0,108
-304,066	393,657	0,032	-0,049
-303,051	-146,848	-0,067	0,004
-302,037	-31,474	0,036	0,015
-301,022	-114,774	-0,058	0,008
-300,008	771,740	0,056	0,113
-298,993	-200,000	-0,022	0,080
-297,978	-200,000	-0,003	0,152
-296,964	-97,239	0,143	-0,027
-295,949	-7,680	-0,035	-0,017
-294,935	-152,601	-0,071	0,004
-293,920	-21,678	0,033	-0,015
-292,905	-200,000	-0,011	-0,065
-291,891	396,267	0,048	0,074
-290,876	-200,000	-0,008	0,098
-289,862	-166,694	0,018	-0,001
-288,847	134,226	-0,085	0,081
-287,832	-200,000	-0,009	0,074
-286,818	-200,000	-0,020	0,089
-285,803	-200,000	0,012	-0,042
-284,789	280,878	0,092	0,121
-283,774	-71,615	0,075	-0,020
-282,759	-200,000	-0,022	-0,117
-281,745	800,000	-0,037	-0,104
-280,730	800,000	0,034	0,078
-279,716	15,024	-0,030	-0,017
-278,701	-74,874	-0,142	0,037
-277,686	800,000	-0,022	0,049
-276,672	65,887	-0,076	0,056
-275,657	800,000	0,045	0,105
-274,643	-24,634	-0,121	0,053
-273,628	639,465	-0,037	-0,069
-272,613	-84,613	-0,058	-0,013
-271,599	-63,769	0,170	-0,051
-270,584	376,256	0,052	-0,078
-269,570	-33,682	-0,049	-0,020
-268,555	-200,000	-0,016	0,101
-267,540	-134,090	-0,047	-0,004
-266,526	67,783	-0,146	-0,109
-265,511	-104,386	0,109	0,018
-264,497	-200,000	0,015	0,168
-263,482	336,647	0,041	0,059
-262,467	-55,892	0,106	-0,034
-261,453	163,166	-0,093	0,096
-260,438	-200,000	0,048	-0,159
-259,424	498,848	-0,063	-0,106
-258,409	652,002	-0,063	-0,118
-257,395	-141,816	0,120	-0,009
-256,380	121,374	0,085	-0,077
-255,365	-200,000	0,042	0,218
-254,351	-200,000	0,036	0,213
-253,336	-169,291	-0,049	0,001
-252,322	339,128	-0,080	-0,115
-251,307	273,088	-0,006	0,008
-250,292	131,556	0,040	0,038
-249,278	420,901	0,067	0,106
-248,263	-200,000	-0,002	-0,132
-247,249	-23,084	-0,040	-0,017
-246,234	4,206	-0,147	0,079
-245,219	573,502	-0,095	-0,170
-244,205	-200,000	0,013	-0,135
-243,190	-113,718	-0,089	-0,013
-242,176	-200,000	-0,015	-0,053
-241,161	662,755	0,056	-0,105
-240,146	-200,000	-0,013	-0,143
-239,132	-7,403	0,118	0,058
-238,117	-100,021	0,110	0,020
-237,103	-23,421	0,064	0,028
-236,088	39,579	-0,057	-0,038
-235,073	800,000	-0,010	0,030
-234,059	800,000	-0,034	-0,080
-233,044	-200,000	-0,005	-0,079
-232,030	551,351	-0,041	0,073
-231,015	-171,503	0,054	-0,001
-230,000	-21,853	-0,132	0,058
-228,986	685,661	-0,025	-0,048
-227,971	-125,176	0,138	0,015
-226,957	239,482	0,036	0,044
-225,942	315,040	0,091	-0,126
-224,927	51,129	-0,087	-0,060
-223,913	-200,000	0,003	-0,147
-222,898	125,385	0,048	-0,044
-221,884	9,870	-0,185	0,102
-220,869	8,718	0,043	-0,024
-219,855	234,513	0,020	0,024
-218,840	388,356	-0,022	0,034
-217,825	-200,000	-0,000	-0,112
-216,811	-200,000	-0,026	-0,094
-215,796	-149,915	-0,091	-0,005
-214,782	-200,000	-0,002	0,050
-213,767	-200,000	0,016	0,093
-212,752	-200,000	-0,000	0,090
-211,738	-50,656	0,046	0,016
-210,723	55,936	0,133	-0,094
-209,709	496,486	-0,045	-0,076
-208,694	-39,693	-0,124	0,047
-207,679	171,024	-0,044	0,046
-206,665	-100,226	0,111	0,020
-205,650	347,808	0,099	0,143
-204,636	800,000	0,028	-0,086
-203,621	516,131	-0,075	-0,129
-202,606	800,000	0,022	-0,054
-201,592	-200,000	0,010	0,180
-200,577	345,525	-0,025	0,035
-199,563	-200,000	-0,016	-0,061
-198,548	800,000	0,027	0,062
-197,533	66,056	0,110	-0,081
-196,519	800,000	0,030	-0,064
-195,504	28,189	-0,045	0,027
-194,490	-68,583	-0,105	0,029
-193,475	-38,793	0,066	-0,025
-192,460	-200,000	0,003	0,036
-191,446	800,000	-0,027	0,063
-190,431	-103,979	0,077	0,013
-189,417	339,002	0,074	0,105
-188,402	555,025	-0,028	-0,050
-187,387	800,000	-0,061	-0,164
-186,373	-64,007	-0,166	0,049
-185,358	178,936	0,132	-0,141
-184,344	335,227	-0,054	-0,077
-183,329	800,000	-0,055	-0,140
-182,315	1,350	0,043	-0,022
-181,300	-194,039	-0,081	-0,000
-180,285	204,458	0,070	0,080
-179,271	-45,059	-0,143	0,052
-178,256	702,052	-0,079	0,152
-177,242	800,000	0,047	0,102
-176,227	-126,434	-0,108	0,012
-175,212	111,092	-0,067	0,059
-174,198	800,000	0,051	0,149
-173,183	689,180	-0,045	0,086
-172,169	-200,000	0,029	-0,126
-171,154	800,000	0,022	-0,061
-170,139	-200,000	-0,024	0,110
-169,125	-193,824	-0,011	0,000
-168,110	-200,000	0,011	-0,091
-167,096	-200,000	-0,024	-0,177
-166,081	96,677	-0,073	-0,061
-165,066	-73,109	-0,020	0,005
-164,052	800,000	-0,010	0,028
-163,037	144,633	-0,015	0,015
-162,023	-22,777	0,120	0,053
-161,008	800,000	-0,024	0,074
-159,993	-84,012	0,053	0,012
-158,979	-32,993	-0,083	0,033
-157,964	-200,000	-0,017	0,066
-156,950	800,000	-0,045	-0,127
-155,935	377,697	-0,047	0,071
-154,920	-200,000	0,002	-0,034
-153,906	-200,000	0,018	0,075
-152,891	627,024	0,050	0,093
-151,877	-200,000	0,017	0,066
-150,862	-200,000	-0,025	-0,158
-149,847	434,328	0,060	0,095
-148,833	800,000	0,014	-0,039
-147,818	-200,000	-0,021	0,216
-146,804	-200,000	0,009	0,106
-145,789	227,239	0,082	0,097
-144,775	-200,000	0,002	0,069
-143,760	800,000	0,021	0,048
-142,745	152,939	0,043	-0,043
-141,731	-138,853	0,071	0,006
-140,716	-90,830	-0,107	-0,022
-139,702	-51,192	0,079	-0,027
-138,687	328,127	-0,109	0,152
-137,672	-200,000	-0,011	0,137
-136,658	247,794	0,087	-0,107
-135,643	-97,249	0,085	-0,016
-134,629	800,000	-0,008	-0,016
-133,614	-119,634	0,038	-0,005
-132,599	-33,578	0,090	-0,036
-131,585	-54,594	0,119	0,039
-130,570	800,000	0,032	-0,065
-129,556	-128,162	0,099	0,010
-128,541	800,000	0,037	-0,093
-127,526	40,512	-0,093	0,061
-126,512	-83,958	0,092	-0,021
-125,497	-99,545	-0,098	0,018
-124,483	-39,103	-0,053	-0,020
-123,468	-13,373	-0,094	0,044
-122,453	-69,664	-0,046	0,013
-121,439	-200,000	-0,002	0,018
-120,424	-127,300	0,130	-0,014
