DTS Sentinel unit serial number:	SN410029Multiplexer serial number:	ORYXHardware model number:	OX2-SRSoftware version number:	ORYX F/W v4,00 Oryx Data Collector v3.7.2.0data status	okinstallation	B6 Nyhavnadifferential loss correction	single-endedforward channel	channel 2reverse channel	N/Adate	2023/12/08time	00:40:08forward acquisition time	300,00reverse acquisition time	0,00gamma	499,1914k internal	0,3165k external	0,3165temperature offset calibration	1,0000default loss term (dB/km)	0,3820temperature slope calibration	1,0000multiplexer offset coefficient	1,0000multiplexer slope coefficient	1,0000fibre end	0,00T internal ref (°C)	13,31T ext. ref 1 (°C)	-3,61T ext. ref 2 (°C)	-3,59length (m)	temperature (°C)	Stokes	anti-Stokes-744,400	307,347	0,080	0,110
-743,385	-195,168	-0,239	-0,001
-742,371	27,039	0,103	-0,063
-741,356	-99,993	-0,314	-0,057
-740,342	-12,778	0,098	-0,047
-739,327	-49,903	-0,393	-0,136
-738,312	-70,221	-0,064	0,018
-737,298	-75,126	-0,318	-0,083
-736,283	-200,000	0,011	0,096
-735,269	-174,964	-0,242	0,005
-734,254	243,912	0,115	0,142
-733,239	-87,214	-0,446	-0,099
-732,225	800,000	0,044	0,091
-731,210	45,214	-0,067	-0,046
-730,196	-200,000	0,006	-0,047
-729,181	-200,000	-0,004	-0,056
-728,167	-200,000	0,021	-0,102
-727,152	340,320	0,008	0,012
-726,137	-78,864	-0,058	-0,015
-725,123	448,434	0,065	-0,106
-724,108	99,280	-0,104	-0,088
-723,094	61,328	-0,102	-0,074
-722,079	-113,820	0,057	-0,008
-721,064	138,040	-0,070	0,067
-720,050	-200,000	0,025	0,085
-719,035	-200,000	-0,007	-0,053
-718,021	800,000	-0,035	-0,076
-717,006	800,000	-0,050	0,117
-715,991	-200,000	-0,030	-0,114
-714,977	115,058	-0,128	0,115
-713,962	-45,340	0,070	0,026
-712,948	-196,657	-0,070	0,000
-711,933	21,698	-0,071	-0,042
-710,918	-89,382	-0,070	-0,015
-709,904	-169,828	0,106	-0,003
-708,889	-99,593	-0,085	-0,016
-707,875	-4,845	0,105	-0,053
-706,860	-153,895	0,074	-0,004
-705,845	74,488	0,073	-0,057
-704,831	357,586	0,096	0,141
-703,816	172,044	-0,116	-0,122
-702,802	-66,057	0,146	0,043
-701,787	28,953	-0,140	-0,087
-700,772	-200,000	0,028	-0,126
-699,758	278,868	0,011	-0,014
-698,743	-200,000	-0,001	0,147
-697,729	-4,188	0,049	-0,025
-696,714	330,131	-0,028	-0,040
-695,699	-200,000	-0,048	-0,226
-694,685	53,503	-0,044	-0,031
-693,670	-47,990	-0,108	-0,038
-692,656	-53,864	0,085	0,028
-691,641	-67,499	0,090	0,026
-690,627	101,925	-0,118	0,101
-689,612	-169,484	-0,141	-0,004
-688,597	-200,000	0,045	0,159
-687,583	308,960	0,061	-0,084
-686,568	800,000	0,008	-0,023
-685,554	-13,977	-0,029	-0,014
-684,539	21,610	0,065	0,038
-683,524	-200,000	-0,007	0,093
-682,510	2,791	-0,050	-0,026
-681,495	800,000	-0,144	-0,294
-680,481	-0,292	0,031	0,016
-679,466	-46,866	-0,076	0,027
-678,451	51,520	-0,115	-0,080
-677,437	66,053	0,083	-0,061
-676,422	800,000	-0,010	0,021
-675,408	-45,263	0,155	0,056
-674,393	66,706	0,016	0,012
-673,378	-200,000	0,002	-0,084
-672,364	90,791	-0,108	0,089
-671,349	800,000	-0,032	-0,080
-670,335	9,775	-0,059	-0,032
-669,320	-200,000	0,000	0,029
-668,305	401,935	0,081	-0,125
-667,291	-200,000	-0,020	0,067
-666,276	90,399	-0,016	-0,013
-665,262	-200,000	-0,007	-0,079
-664,247	800,000	-0,022	-0,068
-663,232	-200,000	0,017	-0,070
-662,218	-56,321	-0,115	0,037
-661,203	-200,000	-0,007	-0,024
-660,189	102,522	0,079	-0,068
-659,174	-200,000	-0,006	-0,109
-658,159	800,000	0,061	-0,147
-657,145	-200,000	-0,024	-0,085
-656,130	-119,735	0,023	0,003
-655,116	3,130	0,158	0,084
-654,101	99,540	-0,091	0,077
-653,086	214,464	0,060	-0,070
-652,072	92,021	0,057	-0,047
-651,057	-136,797	0,111	0,009
-650,043	-93,908	-0,077	-0,015
-649,028	8,280	-0,133	-0,073
-648,014	-200,000	0,023	0,119
-646,999	-2,518	-0,122	-0,063
-645,984	-102,976	0,006	-0,001
-644,970	-78,573	-0,110	-0,027
-643,955	800,000	0,030	-0,073
-642,941	-200,000	0,007	-0,035
-641,926	233,914	-0,023	-0,027
-640,911	-149,116	0,059	0,003
-639,897	800,000	0,035	0,076
-638,882	-114,786	-0,136	-0,019
-637,868	-79,993	-0,126	-0,031
-636,853	-140,984	0,058	0,004
-635,838	284,972	-0,112	-0,148
-634,824	90,634	0,050	-0,041
-633,809	-6,002	0,116	-0,058
-632,795	-200,000	0,031	0,127
-631,780	800,000	-0,027	0,079
-630,765	-122,972	-0,062	0,007
-629,751	345,937	-0,119	-0,171
-628,736	-200,000	0,004	-0,050
-627,722	-106,622	-0,068	-0,011
-626,707	-200,000	-0,002	0,093
-625,692	272,459	0,036	-0,047
-624,678	-200,000	-0,011	0,039
-623,663	-200,000	-0,012	-0,084
-622,649	83,611	-0,079	-0,063
-621,634	-200,000	-0,001	0,061
-620,619	120,524	0,027	0,025
-619,605	-43,913	0,065	0,024
-618,590	33,155	-0,076	-0,048
-617,576	623,348	0,072	0,133
-616,561	376,743	-0,076	0,113
-615,546	112,229	0,043	0,038
-614,532	-83,798	-0,179	0,041
-613,517	-18,261	-0,064	0,029
-612,503	3,631	-0,085	0,045
-611,488	800,000	-0,081	0,181
-610,474	-21,262	-0,110	0,049
-609,459	-56,301	-0,128	-0,041
-608,444	-200,000	-0,000	-0,065
-607,430	170,916	-0,066	-0,069
-606,415	-200,000	0,006	-0,179
-605,401	-200,000	0,011	-0,097
-604,386	-200,000	-0,002	0,113
-603,371	-48,852	0,131	0,046
-602,357	338,544	-0,035	0,050
-601,342	155,769	-0,031	-0,031
-600,328	-123,222	-0,057	0,007
-599,313	-0,396	-0,127	-0,066
-598,298	800,000	-0,027	-0,072
-597,284	-8,050	0,173	-0,085
-596,269	295,885	0,031	0,042
-595,255	-200,000	0,011	-0,190
-594,240	-200,000	0,047	-0,164
-593,225	442,638	-0,043	0,068
-592,211	78,127	-0,046	-0,036
-591,196	89,370	0,090	-0,073
-590,182	49,550	-0,084	-0,057
-589,167	-200,000	0,026	0,096
-588,152	-200,000	-0,017	0,075
-587,138	134,963	-0,115	0,110
-586,123	265,816	0,045	-0,057
-585,109	-200,000	-0,004	-0,101
-584,094	-46,502	0,036	0,013
-583,079	-178,062	-0,057	-0,001
-582,065	107,310	0,045	0,039
-581,050	542,478	0,022	0,039
-580,036	-200,000	-0,011	-0,087
-579,021	98,937	0,077	-0,065
-578,006	209,713	-0,098	-0,112
-576,992	800,000	0,064	0,178
-575,977	750,169	0,037	0,074
-574,963	-200,000	-0,027	0,097
-573,948	22,121	0,128	0,076
-572,934	309,969	-0,037	0,051
-571,919	158,958	-0,068	0,069
-570,904	-200,000	0,002	-0,065
-569,890	-200,000	-0,004	-0,040
-568,875	-21,084	0,043	-0,019
-567,861	-200,000	0,012	0,048
-566,846	-200,000	0,003	0,114
-565,831	-56,720	-0,040	-0,013
-564,817	800,000	-0,047	-0,135
-563,802	800,000	0,072	-0,161
-562,788	800,000	0,032	0,096
-561,773	-200,000	-0,022	0,142
-560,758	111,579	0,100	0,088
-559,744	-200,000	0,033	0,122
-558,729	-200,000	0,016	-0,081
-557,715	236,674	-0,021	-0,026
-556,700	101,962	0,081	-0,069
-555,685	74,757	0,108	-0,083
-554,671	-72,499	0,028	0,008
-553,656	268,391	-0,066	-0,084
-552,642	-126,260	0,089	0,010
-551,627	-74,078	-0,028	0,007
-550,612	-200,000	-0,028	-0,158
-549,598	800,000	0,030	-0,066
-548,583	66,858	-0,032	0,024
-547,569	200,118	0,090	0,101
-546,554	800,000	-0,042	0,108
-545,539	-200,000	0,032	0,209
-544,525	800,000	-0,054	0,136
-543,510	-200,000	0,009	0,035
-542,496	800,000	-0,028	-0,090
-541,481	-200,000	-0,021	-0,093
-540,466	-82,319	-0,069	-0,016
-539,452	-200,000	-0,021	-0,091
-538,437	6,260	-0,032	0,017
-537,423	800,000	0,034	0,069
-536,408	40,066	0,061	-0,040
-535,393	164,848	0,074	0,076
-534,379	-153,074	-0,064	-0,003
-533,364	800,000	0,035	-0,090
-532,350	-56,363	0,086	-0,028
-531,335	150,214	0,081	0,080
-530,321	-200,000	0,008	-0,072
-529,306	-200,000	-0,013	0,109
-528,291	-46,191	0,101	0,036
-527,277	741,761	-0,048	-0,094
-526,262	-78,401	0,175	-0,044
-525,248	-123,445	0,077	0,009
-524,233	307,040	0,034	-0,046
-523,218	-200,000	-0,005	0,038
-522,204	800,000	0,010	0,031
-521,189	-200,000	0,001	-0,087
-520,175	171,585	-0,082	-0,086
-519,160	-200,000	0,021	-0,183
-518,145	440,553	0,017	-0,027
-517,131	366,753	-0,019	-0,028
-516,116	800,000	0,047	0,116
-515,102	-147,501	0,064	0,004
-514,087	-122,480	-0,085	-0,010
-513,072	-141,369	0,115	0,008
-512,058	35,230	0,052	0,033
-511,043	-25,096	-0,076	-0,033
-510,029	698,890	0,070	0,135
-509,014	-83,818	0,059	0,014
-507,999	-200,000	-0,050	0,170
-506,985	57,460	0,026	-0,018
-505,970	-200,000	-0,008	-0,055
-504,956	458,099	0,031	-0,050
-503,941	175,353	-0,090	0,095
-502,926	-200,000	-0,008	-0,055
-501,912	-83,425	-0,119	-0,028
-500,897	33,353	-0,042	-0,027
-499,883	-145,247	-0,146	0,010
-498,868	184,260	-0,097	-0,105
-497,853	64,315	0,046	-0,034
-496,839	165,165	0,078	-0,081
-495,824	119,516	0,099	0,089
-494,810	-200,000	0,003	0,070
-493,795	48,654	-0,067	0,046
-492,781	65,607	-0,069	0,051
-491,766	-117,725	0,059	0,008
-490,751	-200,000	-0,018	-0,076
-489,737	-144,062	0,101	0,007
-488,722	-146,567	-0,110	-0,007
-487,708	-200,000	0,036	-0,127
-486,693	127,220	0,054	0,050
-485,678	-178,549	0,125	0,002
-484,664	-89,275	-0,109	-0,023
-483,649	-200,000	-0,026	-0,103
-482,635	-115,409	-0,124	0,017
-481,620	-42,438	0,192	-0,071
-480,605	800,000	0,002	0,006
-479,591	7,667	-0,166	0,090
-478,576	310,588	0,055	0,076
-477,562	800,000	-0,026	-0,054
-476,547	800,000	-0,023	-0,070
-475,532	596,959	0,051	0,092
-474,518	-78,729	0,119	0,029
-473,503	-77,302	0,103	0,026
-472,489	800,000	0,045	0,103
-471,474	800,000	0,005	0,013
-470,459	112,448	-0,055	-0,049
-469,445	-200,000	0,020	-0,186
-468,430	-200,000	-0,002	0,018
-467,416	-140,245	0,021	-0,002
-466,401	207,928	0,093	0,106
-465,386	189,088	-0,110	0,120
-464,372	800,000	-0,014	-0,034
-463,357	-200,000	-0,001	0,028
-462,343	8,065	0,073	-0,040
-461,328	-56,434	-0,127	-0,041
-460,313	136,029	-0,082	-0,078
-459,299	12,091	0,277	-0,155
-458,284	800,000	0,027	-0,067
-457,270	-200,000	-0,019	-0,110
-456,255	-200,000	-0,024	-0,148
-455,241	38,060	-0,165	0,107
-454,226	-200,000	0,001	-0,152
-453,211	-121,834	0,168	-0,020
-452,197	691,764	0,047	0,090
-451,182	-44,362	-0,117	0,042
-450,168	-200,000	-0,022	0,101
-449,153	141,217	-0,108	0,104
-448,138	0,116	-0,069	-0,035
-447,124	-200,000	-0,014	-0,127
-446,109	-23,924	-0,037	-0,016
-445,095	-53,945	0,101	0,033
-444,080	-1,747	0,069	-0,035
-443,065	-26,164	0,044	0,019
-442,051	-20,144	0,069	-0,031
-441,036	800,000	-0,079	-0,166
-440,022	-90,267	-0,037	-0,008
-439,007	-61,214	0,150	0,046
-437,992	-200,000	0,004	0,127
-436,978	-104,867	0,078	0,013
-435,963	59,537	0,028	0,020
-434,949	214,469	0,098	-0,113
-433,934	800,000	-0,021	-0,051
-432,919	-200,000	0,011	-0,061
-431,905	-60,581	-0,164	-0,050
-430,890	800,000	-0,035	0,098
-429,876	800,000	0,035	-0,070
-428,861	-84,125	0,135	0,031
-427,846	800,000	0,028	-0,057
-426,832	25,261	0,047	-0,028
-425,817	-106,067	0,089	0,014
-424,803	-123,196	0,046	-0,005
-423,788	30,794	-0,065	-0,040
-422,773	-89,871	0,070	-0,015
-421,759	325,417	-0,033	0,046
-420,744	800,000	0,016	-0,046
-419,730	800,000	-0,038	-0,081
-418,715	-89,941	-0,118	-0,025
-417,701	-54,848	0,061	0,020
-416,686	-200,000	0,032	-0,124
-415,671	208,735	0,114	-0,130
-414,657	-200,000	-0,021	0,095
-413,642	-81,856	0,094	0,022
-412,628	-91,100	-0,063	-0,013
-411,613	-15,194	-0,138	-0,064
-410,598	-200,000	-0,003	-0,029
-409,584	300,228	0,055	0,073
-408,569	-200,000	-0,011	0,047
-407,555	389,983	0,051	0,077
-406,540	54,575	-0,111	-0,077
-405,525	347,660	-0,077	0,111
-404,511	221,045	0,036	-0,042
-403,496	800,000	0,031	0,094
-402,482	217,556	-0,056	0,065
-401,467	281,353	0,024	0,031
-400,452	289,445	0,023	-0,030
-399,438	-200,000	-0,018	-0,065
-398,423	148,803	0,016	-0,016
-397,409	-154,253	0,016	-0,001
-396,394	800,000	-0,017	-0,055
-395,379	-200,000	0,002	-0,086
-394,365	263,951	0,087	0,111
-393,350	-67,804	-0,120	-0,034
-392,336	800,000	-0,023	0,070
-391,321	82,566	0,036	0,028
-390,306	253,395	-0,030	0,038
-389,292	384,259	0,067	-0,100
-388,277	800,000	0,035	-0,087
-387,263	-200,000	-0,033	0,134
-386,248	-200,000	0,005	0,137
-385,233	-200,000	-0,015	-0,112
-384,219	-68,505	0,135	-0,038
-383,204	798,261	-0,042	0,084
-382,190	-200,000	-0,010	-0,139
-381,175	306,639	0,064	0,087
-380,160	187,914	0,053	-0,057
-379,146	-161,342	-0,058	0,002
-378,131	-200,000	-0,010	-0,132
-377,117	-200,000	0,006	0,107
-376,102	629,491	-0,073	0,135
-375,088	-200,000	-0,021	0,074
-374,073	236,235	-0,030	-0,036
-373,058	670,962	0,050	0,094
-372,044	-200,000	0,007	-0,062
-371,029	67,032	0,128	0,094
-370,015	254,731	0,056	0,069
-369,000	-139,348	0,050	-0,004
-367,985	800,000	0,025	-0,051
-366,971	-111,853	-0,061	0,009
-365,956	180,044	0,165	0,176
-364,942	364,434	-0,050	-0,073
-363,927	-131,161	0,024	0,002
-362,912	-12,233	0,085	0,040
-361,898	-200,000	0,009	-0,048
-360,883	-200,000	-0,008	-0,070
-359,869	-6,300	0,139	0,068
-358,854	384,755	0,032	-0,048
-357,839	15,223	0,051	-0,029
-356,825	426,073	0,013	0,020
-355,810	64,759	0,050	0,036
-354,796	-44,658	-0,077	-0,028
-353,781	57,888	-0,154	-0,109
-352,766	-200,000	0,014	0,138
-351,752	-200,000	0,000	-0,057
-350,737	-107,592	0,018	0,003
-349,723	323,442	-0,090	0,125
-348,708	-164,657	0,029	0,001
-347,693	-56,113	-0,039	-0,012
-346,679	144,484	0,065	-0,062
-345,664	-200,000	-0,004	-0,039
-344,650	27,424	0,063	-0,038
-343,635	-200,000	0,006	0,192
-342,620	112,621	0,062	-0,054
-341,606	-58,618	-0,043	0,013
-340,591	-48,348	-0,093	0,032
-339,577	694,350	0,012	0,023
-338,562	-200,000	0,042	-0,143
-337,548	320,151	0,094	-0,130
-336,533	-97,771	0,121	-0,022
-335,518	800,000	-0,028	-0,063
-334,504	-200,000	0,004	0,210
-333,489	-200,000	-0,030	-0,101
-332,475	-200,000	-0,005	-0,027
-331,460	-121,245	-0,165	0,020
-330,445	-200,000	-0,011	-0,044
-329,431	-132,768	0,008	0,001
-328,416	-200,000	0,010	0,095
-327,402	800,000	-0,015	0,047
-326,387	-97,688	-0,042	-0,008
-325,372	782,121	-0,045	0,090
-324,358	130,006	-0,091	0,084
-323,343	155,041	-0,038	-0,038
-322,329	227,204	0,059	0,070
-321,314	84,361	-0,193	0,152
-320,299	564,265	0,025	-0,043
-319,285	-200,000	-0,094	0,000
-318,270	136,119	-0,057	-0,054
-317,256	800,000	0,035	-0,105
-316,241	-95,594	0,076	-0,015
-315,226	800,000	0,074	0,150
-314,212	789,790	-0,079	0,158
-313,197	-24,085	0,082	0,035
-312,183	211,887	-0,034	0,039
-311,168	-145,232	-0,171	-0,011
-310,153	800,000	-0,025	-0,073
-309,139	-48,217	0,075	0,026
-308,124	10,504	-0,056	0,031
-307,110	-200,000	-0,002	-0,025
-306,095	-27,930	-0,029	-0,012
-305,080	-67,965	0,059	0,016
-304,066	-11,596	-0,087	-0,041
-303,051	250,603	-0,033	-0,041
-302,037	800,000	0,019	-0,058
-301,022	335,262	-0,052	-0,072
-300,008	-38,234	0,073	-0,028
-298,993	721,260	0,045	-0,087
-297,978	87,822	-0,049	0,039
-296,964	147,543	-0,073	0,071
-295,949	-129,273	0,017	0,002
-294,935	58,489	-0,052	-0,037
-293,920	270,934	-0,097	0,124
-292,905	-200,000	0,006	0,035
-291,891	-125,984	0,161	-0,017
-290,876	-200,000	0,006	0,049
-289,862	-200,000	-0,007	0,025
-288,847	254,643	-0,058	-0,072
-287,832	-200,000	-0,010	0,101
-286,818	-200,000	0,023	-0,122
-285,803	0,476	0,102	0,052
-284,789	128,992	0,135	-0,125
-283,774	25,448	0,145	0,087
-282,759	208,695	-0,067	0,076
-281,745	170,088	-0,081	-0,084
-280,730	282,929	-0,039	0,051
-279,716	508,812	-0,078	0,131
-278,701	800,000	0,013	0,036
-277,686	800,000	-0,013	0,029
-276,672	-200,000	0,021	0,082
-275,657	123,803	0,068	0,062
-274,643	-59,975	-0,087	-0,027
-273,628	800,000	-0,016	0,034
-272,613	328,377	0,045	-0,063
-271,599	-155,228	0,092	-0,004
-270,584	-23,302	-0,038	0,016
-269,570	-200,000	-0,042	-0,138
-268,555	-13,376	0,036	0,017
-267,540	-200,000	-0,004	-0,025
-266,526	270,803	0,038	-0,048
-265,511	286,237	0,097	0,126
-264,497	-200,000	0,017	0,123
-263,482	-200,000	0,000	0,019
-262,467	-200,000	0,001	0,034
-261,453	265,859	-0,023	0,029
-260,438	-99,151	0,047	0,008
-259,424	700,064	0,055	-0,105
-258,409	-118,474	-0,067	-0,008
-257,395	-200,000	0,005	0,037
-256,380	-200,000	0,015	0,054
-255,365	-62,853	-0,130	-0,039
-254,351	15,168	0,065	0,037
-253,336	-200,000	-0,017	-0,090
-252,322	274,293	0,041	0,053
-251,307	800,000	-0,029	0,064
-250,292	-45,545	0,077	-0,027
-249,278	533,673	0,040	0,069
-248,263	-200,000	0,010	0,097
-247,249	800,000	-0,026	0,064
-246,234	800,000	-0,016	0,037
-245,219	-107,215	-0,098	-0,015
-244,205	800,000	0,031	-0,087
-243,190	-121,453	0,062	0,007
-242,176	-87,143	-0,023	0,005
-241,161	199,673	-0,021	0,024
-240,146	-6,662	-0,062	0,030
-239,132	-200,000	0,004	-0,034
-238,117	-33,829	-0,069	-0,027
-237,103	-98,737	0,097	-0,018
-236,088	150,988	0,026	0,026
-235,073	-200,000	-0,023	0,125
-234,059	-33,002	0,100	0,040
-233,044	800,000	0,011	0,033
-232,030	208,840	0,028	-0,032
-231,015	-119,447	-0,028	-0,003
-230,000	608,747	0,072	0,130
-228,986	-200,000	0,007	-0,100
-227,971	161,520	0,028	0,028
-226,957	-200,000	-0,002	0,066
-225,942	316,799	0,042	0,057
-224,927	126,104	0,058	-0,053
-223,913	-200,000	0,018	0,071
-222,898	-152,386	-0,101	0,005
-221,884	-200,000	-0,008	-0,049
-220,869	-127,324	-0,112	-0,012
-219,855	-200,000	0,017	0,087
-218,840	100,667	0,082	-0,069
-217,825	-196,680	-0,021	0,000
-216,811	-200,000	0,027	-0,104
-215,796	-200,000	0,025	-0,109
-214,782	-2,231	0,064	0,032
-213,767	-27,974	-0,060	-0,025
-212,752	800,000	0,070	0,147
-211,738	800,000	0,037	0,086
-210,723	-42,105	-0,085	-0,031
-209,709	800,000	-0,029	-0,066
-208,694	641,302	-0,058	-0,107
-207,679	-42,853	-0,204	-0,074
-206,665	329,604	0,092	0,127
-205,650	10,601	0,157	0,086
-204,636	-200,000	0,006	0,098
-203,621	-74,057	0,154	-0,040
-202,606	800,000	-0,007	-0,019
-201,592	-62,375	-0,029	-0,009
-200,577	211,047	0,181	-0,205
-199,563	788,747	-0,041	-0,082
-198,548	800,000	0,035	-0,087
-197,533	-200,000	0,033	-0,138
-196,519	123,138	-0,084	-0,076
-195,504	-19,084	-0,114	-0,051
-194,490	800,000	0,017	0,042
-193,475	-48,705	-0,135	-0,046
-192,460	546,876	0,042	0,073
-191,446	-127,077	0,049	0,005
-190,431	-46,869	0,158	0,055
-189,417	436,538	-0,040	0,063
-188,402	379,005	-0,036	-0,054
-187,387	8,828	-0,077	0,042
-186,373	-14,739	0,133	0,061
-185,358	416,429	0,035	0,054
-184,344	800,000	0,011	-0,032
-183,329	-200,000	0,003	-0,078
-182,315	573,183	-0,072	-0,127
-181,300	-61,080	-0,068	0,020
-180,285	800,000	-0,016	0,037
-179,271	-200,000	-0,002	-0,053
-178,256	-200,000	-0,001	-0,028
-177,242	26,747	-0,023	-0,014
-176,227	-109,284	0,040	0,006
-175,212	277,329	0,020	0,026
-174,198	-19,342	0,097	-0,043
-173,183	-200,000	-0,023	0,093
-172,169	-127,390	-0,130	0,013
-171,154	118,384	-0,081	-0,072
-170,139	-62,462	0,045	0,013
-169,125	-200,000	0,006	0,088
-168,110	-74,151	-0,111	-0,029
-167,096	-200,000	0,009	-0,097
-166,081	800,000	0,026	0,067
-165,066	-182,639	-0,202	-0,003
-164,052	-200,000	-0,000	-0,145
-163,037	800,000	-0,036	-0,077
-162,023	-200,000	-0,015	0,093
-161,008	-164,232	0,087	0,003
-159,993	-158,356	-0,154	0,006
-158,979	800,000	-0,060	0,155
-157,964	454,011	0,024	0,038
-156,950	40,368	-0,076	-0,049
-155,935	800,000	0,004	-0,014
-154,920	66,796	-0,095	0,069
-153,906	800,000	0,007	-0,015
-152,891	116,095	-0,045	0,040
-151,877	197,537	0,093	0,102
-150,862	-8,807	0,119	0,057
-149,847	-200,000	-0,013	-0,168
-148,833	328,841	0,042	-0,058
-147,818	607,211	-0,022	-0,039
-146,804	-200,000	-0,012	-0,201
-145,789	-200,000	-0,013	0,105
-144,775	-200,000	0,005	0,058
-143,760	-200,000	0,026	-0,115
-142,745	273,999	-0,011	-0,014
-141,731	-77,240	0,104	0,026
-140,716	-55,060	0,191	0,062
-139,702	-28,587	-0,099	-0,041
-138,687	-200,000	0,004	-0,014
-137,672	-165,002	-0,139	-0,004
-136,658	-36,601	-0,050	-0,019
-135,643	70,871	-0,066	0,049
-134,629	153,394	0,011	-0,011
-133,614	-118,840	0,149	-0,019
-132,599	315,745	-0,073	0,100
-131,585	18,646	0,074	0,043
-130,570	-200,000	0,015	-0,058
-129,556	100,281	-0,059	-0,049
-128,541	-182,284	-0,075	0,001
-127,526	-200,000	0,004	-0,025
-126,512	-146,612	0,070	-0,004
-125,497	-43,142	0,208	0,075
-124,483	-183,875	-0,056	0,001
-123,468	-70,316	-0,082	0,022
-122,453	321,601	-0,022	0,029
-121,439	299,803	0,038	-0,050
-120,424	-200,000	-0,001	0,073
