DTS Sentinel unit serial number:	SN410029Multiplexer serial number:	ORYXHardware model number:	OX2-SRSoftware version number:	ORYX F/W v4,00 Oryx Data Collector v3.7.2.0data status	okinstallation	B6 Nyhavnadifferential loss correction	single-endedforward channel	channel 2reverse channel	N/Adate	2023/12/10time	12:10:08forward acquisition time	300,00reverse acquisition time	0,00gamma	499,1914k internal	0,3123k external	0,3123temperature offset calibration	1,0000default loss term (dB/km)	0,3820temperature slope calibration	1,0000multiplexer offset coefficient	1,0000multiplexer slope coefficient	1,0000fibre end	0,00T internal ref (°C)	22,75T ext. ref 1 (°C)	6,66T ext. ref 2 (°C)	6,68length (m)	temperature (°C)	Stokes	anti-Stokes-744,400	-173,696	0,161	0,003
-743,385	131,208	-0,225	0,215
-742,371	-3,386	0,110	0,057
-741,356	45,482	-0,277	0,190
-740,342	-155,986	0,105	0,005
-739,327	-48,364	-0,232	0,083
-738,312	-146,331	0,134	-0,009
-737,298	-101,037	-0,330	0,060
-736,283	-200,000	0,018	0,096
-735,269	42,029	-0,315	0,213
-734,254	91,128	0,151	-0,126
-733,239	-102,610	-0,531	-0,094
-732,225	-34,705	0,098	-0,040
-731,210	387,366	0,028	0,043
-730,196	-200,000	0,007	-0,092
-729,181	-120,554	-0,114	0,014
-728,167	-132,661	0,028	-0,003
-727,152	-200,000	-0,017	-0,072
-726,137	304,415	-0,038	-0,053
-725,123	-162,072	0,075	0,003
-724,108	186,054	-0,082	-0,091
-723,094	-85,425	-0,094	-0,022
-722,079	-200,000	0,043	-0,147
-721,064	-200,000	-0,001	-0,059
-720,050	334,776	0,079	-0,114
-719,035	-200,000	-0,008	-0,068
-718,021	436,894	-0,122	-0,199
-717,006	2,928	-0,177	0,096
-715,991	-200,000	-0,008	-0,027
-714,977	-35,126	-0,014	0,006
-713,962	-200,000	-0,002	-0,149
-712,948	-15,540	0,049	0,023
-711,933	83,036	-0,035	-0,028
-710,918	164,427	0,046	0,049
-709,904	114,730	-0,071	0,065
-708,889	-134,503	-0,179	-0,016
-707,875	95,880	-0,060	-0,051
-706,860	-104,627	0,059	-0,010
-705,845	758,294	0,061	-0,123
-704,831	-200,000	-0,008	-0,117
-703,816	298,894	0,009	-0,012
-702,802	-12,201	0,152	-0,074
-701,787	43,232	-0,221	-0,150
-700,772	-64,573	-0,128	-0,039
-699,758	800,000	0,018	-0,039
-698,743	-113,969	0,124	-0,018
-697,729	-200,000	-0,017	0,077
-696,714	463,145	0,094	0,156
-695,699	-200,000	-0,019	-0,072
-694,685	-200,000	0,011	-0,088
-693,670	-200,000	-0,071	0,000
-692,656	-11,564	-0,060	-0,029
-691,641	681,217	0,032	-0,062
-690,627	28,117	0,112	0,070
-689,612	-200,000	0,014	-0,079
-688,597	-145,104	-0,121	0,008
-687,583	-13,651	-0,081	-0,039
-686,568	-122,321	-0,167	0,020
-685,554	0,655	-0,030	-0,016
-684,539	-93,239	0,126	-0,026
-683,524	367,590	0,096	0,144
-682,510	105,512	-0,049	0,043
-681,495	140,210	-0,016	-0,016
-680,481	800,000	0,039	-0,088
-679,466	-200,000	-0,025	-0,116
-678,451	-74,186	0,179	-0,048
-677,437	631,842	0,009	0,016
-676,422	800,000	0,039	0,087
-675,408	238,325	-0,131	0,162
-674,393	152,563	0,037	0,038
-673,378	-82,224	0,131	0,031
-672,364	800,000	0,039	-0,082
-671,349	-200,000	0,022	-0,122
-670,335	29,096	0,078	0,049
-669,320	-156,098	0,112	-0,005
-668,305	-137,257	0,122	0,010
-667,291	800,000	-0,069	0,170
-666,276	121,509	-0,041	-0,038
-665,262	800,000	-0,030	0,082
-664,247	-200,000	-0,017	-0,119
-663,232	-73,203	0,035	-0,009
-662,218	642,174	0,076	0,145
-661,203	572,760	-0,030	0,055
-660,189	-200,000	-0,017	-0,073
-659,174	742,443	0,024	-0,048
-658,159	320,106	-0,013	0,018
-657,145	296,608	-0,069	-0,094
-656,130	46,844	0,020	-0,013
-655,116	230,778	0,100	0,122
-654,101	65,895	0,070	0,052
-653,086	-83,359	-0,077	-0,018
-652,072	621,682	-0,044	-0,083
-651,057	188,899	-0,023	-0,026
-650,043	800,000	-0,015	0,045
-649,028	79,281	-0,139	-0,110
-648,014	125,277	0,054	0,050
-646,999	-200,000	-0,003	0,195
-645,984	650,504	0,017	-0,032
-644,970	-57,602	0,116	0,038
-643,955	154,975	0,033	0,034
-642,941	80,352	0,055	-0,044
-641,926	63,782	-0,124	0,092
-640,911	-13,115	-0,086	0,042
-639,897	-200,000	-0,004	0,041
-638,882	240,262	0,084	0,104
-637,868	-136,403	0,098	0,008
-636,853	-68,237	-0,202	-0,058
-635,838	-86,750	-0,069	0,016
-634,824	800,000	-0,048	-0,129
-633,809	800,000	0,038	0,096
-632,795	665,225	0,058	0,111
-631,780	260,245	0,048	-0,061
-630,765	-27,500	0,029	-0,013
-629,751	800,000	0,054	-0,127
-628,736	800,000	0,045	-0,120
-627,722	-115,084	0,017	0,002
-626,707	-97,353	0,133	-0,026
-625,692	-200,000	-0,014	0,089
-624,678	-68,094	0,067	-0,019
-623,663	-200,000	-0,004	0,072
-622,649	102,951	-0,123	-0,106
-621,634	320,550	-0,076	-0,108
-620,619	155,077	0,067	-0,068
-619,605	-200,000	0,001	0,048
-618,590	325,112	-0,102	-0,145
-617,576	337,411	0,011	-0,016
-616,561	-39,291	-0,053	-0,020
-615,546	296,800	0,059	-0,081
-614,532	-200,000	0,003	-0,042
-613,517	46,072	-0,039	-0,027
-612,503	471,992	0,098	-0,164
-611,488	-145,837	0,056	-0,004
-610,474	-200,000	0,005	0,084
-609,459	-200,000	-0,021	0,141
-608,444	-200,000	-0,025	-0,091
-607,430	80,964	0,116	-0,093
-606,415	-200,000	0,012	-0,089
-605,401	-200,000	0,033	-0,123
-604,386	-11,501	-0,023	-0,011
-603,371	370,388	-0,011	-0,017
-602,357	-35,996	0,065	0,026
-601,342	-44,322	-0,053	0,019
-600,328	62,696	-0,042	-0,031
-599,313	-200,000	0,025	0,083
-598,298	44,337	-0,043	0,029
-597,284	77,668	0,075	0,059
-596,269	63,224	0,014	0,011
-595,255	-137,049	-0,082	-0,007
-594,240	13,228	-0,062	-0,035
-593,225	-16,324	-0,106	-0,050
-592,211	800,000	-0,005	0,013
-591,196	-92,626	0,116	0,024
-590,182	-200,000	0,032	0,164
-589,167	-200,000	-0,037	0,124
-588,152	-4,247	0,081	-0,041
-587,138	-200,000	-0,009	-0,108
-586,123	-200,000	-0,015	-0,149
-585,109	-114,146	0,045	-0,006
-584,094	-139,746	-0,116	-0,009
-583,079	69,836	0,011	-0,008
-582,065	407,586	0,078	0,123
-581,050	800,000	0,029	0,067
-580,036	-200,000	-0,023	0,089
-579,021	-54,121	-0,159	-0,053
-578,006	-39,179	-0,080	0,031
-576,992	426,682	-0,061	-0,097
-575,977	800,000	0,034	-0,081
-574,963	-50,812	-0,065	-0,023
-573,948	780,439	-0,014	-0,029
-572,934	800,000	-0,028	0,059
-571,919	-50,916	-0,079	0,027
-570,904	-200,000	0,011	-0,205
-569,890	765,040	-0,033	0,066
-568,875	66,680	-0,053	0,040
-567,861	75,038	0,059	0,046
-566,846	-118,782	-0,069	-0,009
-565,831	-200,000	-0,014	0,069
-564,817	483,156	-0,044	-0,074
-563,802	256,070	-0,018	-0,023
-562,788	800,000	-0,057	-0,142
-561,773	-200,000	0,016	-0,129
-560,758	147,863	-0,064	0,064
-559,744	-162,142	0,031	0,001
-558,729	-14,167	0,026	0,013
-557,715	25,036	-0,112	0,069
-556,700	-89,907	-0,087	-0,019
-555,685	96,089	-0,077	-0,065
-554,671	570,090	-0,081	0,147
-553,656	800,000	0,063	0,140
-552,642	-44,110	-0,103	-0,038
-551,627	15,436	0,162	-0,094
-550,612	211,309	-0,066	-0,077
-549,598	206,970	0,071	-0,082
-548,583	800,000	0,045	-0,104
-547,569	266,190	0,067	0,087
-546,554	251,108	-0,088	0,111
-545,539	-200,000	0,012	-0,043
-544,525	400,401	0,080	-0,125
-543,510	104,032	-0,044	-0,038
-542,496	-200,000	0,012	-0,068
-541,481	-200,000	-0,006	-0,124
-540,466	-200,000	0,009	0,054
-539,452	-200,000	0,009	-0,139
-538,437	128,317	-0,102	0,096
-537,423	-200,000	-0,000	0,041
-536,408	314,730	-0,005	0,007
-535,393	-44,925	-0,079	-0,029
-534,379	-200,000	-0,017	-0,243
-533,364	-10,953	-0,132	-0,064
-532,350	-70,854	0,066	-0,018
-531,335	-116,530	-0,038	0,005
-530,321	-11,634	0,074	0,036
-529,306	800,000	0,053	-0,128
-528,291	-47,773	-0,053	0,019
-527,277	-200,000	-0,163	-0,000
-526,262	517,735	0,016	-0,027
-525,248	50,851	0,021	-0,015
-524,233	-14,159	-0,122	0,058
-523,218	166,631	-0,079	0,083
-522,204	694,729	-0,044	0,086
-521,189	-200,000	0,014	-0,066
-520,175	11,011	-0,161	-0,091
-519,160	-113,443	-0,042	0,006
-518,145	359,476	0,046	-0,068
-517,131	-63,633	-0,119	-0,036
-516,116	-149,340	0,137	-0,008
-515,102	-99,586	-0,049	0,009
-514,087	-200,000	0,007	-0,108
-513,072	161,284	-0,041	0,043
-512,058	28,778	0,108	-0,067
-511,043	-59,757	-0,020	0,006
-510,029	-100,540	0,160	-0,029
-509,014	296,815	-0,043	0,059
-507,999	54,395	0,059	-0,042
-506,985	-122,627	-0,104	0,012
-505,970	274,049	0,049	0,064
-504,956	188,185	-0,091	0,101
-503,941	276,990	0,050	0,065
-502,926	183,105	0,054	0,059
-501,912	-19,135	-0,048	-0,022
-500,897	-5,952	0,090	-0,045
-499,883	-61,651	-0,114	0,035
-498,868	-94,212	-0,053	-0,011
-497,853	-36,942	-0,023	-0,009
-496,839	800,000	-0,020	0,042
-495,824	165,688	0,038	-0,040
-494,810	-21,016	-0,107	-0,048
-493,795	434,661	0,021	0,034
-492,781	-93,756	-0,125	-0,025
-491,766	-49,805	0,031	0,011
-490,751	134,150	-0,097	-0,093
-489,737	-176,351	-0,135	0,003
-488,722	68,142	0,038	0,028
-487,708	-200,000	-0,053	0,212
-486,693	-200,000	-0,004	0,044
-485,678	-200,000	0,006	0,052
-484,664	-200,000	0,005	0,044
-483,649	564,030	-0,068	-0,123
-482,635	-46,195	-0,076	-0,027
-481,620	-168,929	-0,105	0,003
-480,605	-200,000	0,007	0,035
-479,591	367,978	-0,023	0,035
-478,576	126,688	-0,037	0,034
-477,562	-99,812	0,056	-0,010
-476,547	38,752	0,144	-0,095
-475,532	800,000	0,015	-0,030
-474,518	-116,842	-0,169	-0,023
-473,503	232,640	0,081	-0,099
-472,489	120,518	-0,018	0,017
-471,474	-154,747	-0,064	-0,003
-470,459	175,260	-0,022	-0,024
-469,445	-200,000	0,027	-0,138
-468,430	-114,806	0,013	0,002
-467,416	307,636	-0,028	0,039
-466,401	-36,038	0,134	-0,053
-465,386	115,457	0,082	0,074
-464,372	214,177	-0,079	0,092
-463,357	690,191	-0,073	0,141
-462,343	57,117	-0,077	-0,055
-461,328	-200,000	-0,015	0,072
-460,313	261,065	0,034	0,044
-459,299	39,984	-0,056	-0,037
-458,284	144,883	0,072	0,071
-457,270	-200,000	-0,005	-0,076
-456,255	-200,000	0,015	-0,187
-455,241	-77,686	-0,096	-0,024
-454,226	-69,434	0,095	0,027
-453,211	242,051	0,019	-0,023
-452,197	-200,000	-0,003	-0,110
-451,182	142,248	0,092	0,090
-450,168	-30,367	0,153	-0,064
-449,153	-47,742	-0,088	-0,031
-448,138	238,943	-0,085	-0,104
-447,124	-121,021	-0,075	0,009
-446,109	66,831	0,181	0,136
-445,095	279,892	0,064	0,084
-444,080	-14,354	0,066	-0,031
-443,065	307,462	0,088	0,121
-442,051	419,970	-0,071	-0,112
-441,036	-123,446	-0,138	0,016
-440,022	-200,000	-0,035	-0,175
-439,007	306,834	-0,045	0,061
-437,992	800,000	0,042	0,131
-436,978	-184,894	0,137	0,002
-435,963	-200,000	-0,001	0,066
-434,949	-200,000	0,001	0,081
-433,934	148,843	0,027	-0,027
-432,919	-200,000	-0,001	-0,073
-431,905	-105,670	0,053	-0,009
-430,890	-200,000	-0,008	0,152
-429,876	99,714	-0,082	0,070
-428,861	-58,151	0,032	-0,010
-427,846	-84,082	-0,094	0,022
-426,832	-128,560	-0,101	0,010
-425,817	-87,080	0,138	-0,031
-424,803	-172,484	0,139	0,003
-423,788	-71,580	0,050	-0,014
-422,773	14,085	0,132	0,076
-421,759	373,680	-0,054	0,082
-420,744	-200,000	0,013	-0,068
-419,730	-200,000	-0,020	-0,067
-418,715	363,739	-0,041	0,061
-417,701	-144,203	-0,042	-0,003
-416,686	-58,351	-0,079	-0,025
-415,671	-200,000	-0,021	-0,139
-414,657	-200,000	0,042	-0,192
-413,642	800,000	0,028	-0,073
-412,628	25,375	-0,028	0,017
-411,613	20,242	-0,069	-0,041
-410,598	-200,000	0,027	-0,162
-409,584	574,087	-0,052	0,094
-408,569	-200,000	0,003	0,020
-407,555	-59,477	-0,057	0,018
-406,540	-30,304	0,074	-0,031
-405,525	-27,649	-0,105	-0,045
-404,511	-33,538	-0,056	-0,023
-403,496	-200,000	0,005	0,017
-402,482	800,000	-0,059	0,162
-401,467	-59,233	0,083	-0,026
-400,452	-59,435	0,103	0,032
-399,438	-37,818	0,112	0,044
-398,423	181,854	-0,018	0,020
-397,409	-166,336	0,051	0,002
-396,394	254,660	0,059	-0,075
-395,379	-122,366	0,120	0,014
-394,365	-200,000	0,031	0,100
-393,350	-92,799	0,179	0,037
-392,336	800,000	0,026	0,064
-391,321	-200,000	0,014	0,112
-390,306	-200,000	0,016	0,083
-389,292	-12,255	-0,059	0,028
-388,277	55,637	-0,163	0,116
-387,263	-3,802	0,203	-0,103
-386,248	-200,000	0,055	-0,186
-385,233	47,933	0,034	-0,023
-384,219	800,000	0,025	0,052
-383,204	800,000	0,013	0,035
-382,190	-127,318	-0,079	-0,008
-381,175	15,353	0,137	0,079
-380,160	730,498	0,021	0,041
-379,146	-12,410	-0,112	0,053
-378,131	800,000	0,071	0,196
-377,117	800,000	0,043	0,088
-376,102	372,209	0,065	0,097
-375,088	-200,000	-0,016	0,072
-374,073	-200,000	0,045	-0,254
-373,058	144,587	0,019	0,019
-372,044	292,939	0,055	0,074
-371,029	800,000	-0,024	0,054
-370,015	-200,000	0,022	0,152
-369,000	800,000	-0,048	-0,100
-367,985	-67,805	-0,114	-0,033
-366,971	-49,312	-0,020	0,007
-365,956	775,263	0,037	-0,075
-364,942	-163,253	0,139	0,005
-363,927	351,887	0,066	0,096
-362,912	245,682	-0,026	-0,033
-361,898	-114,399	0,079	0,011
-360,883	-200,000	-0,000	-0,016
-359,869	-200,000	0,021	-0,101
-358,854	-84,559	0,088	-0,020
-357,839	800,000	0,028	-0,059
-356,825	800,000	-0,021	0,069
-355,810	-69,931	-0,083	0,023
-354,796	523,485	0,062	0,108
-353,781	592,301	0,039	0,072
-352,766	19,189	0,114	-0,067
-351,752	-200,000	0,010	0,170
-350,737	800,000	-0,054	0,172
-349,723	-200,000	-0,001	0,083
-348,708	-200,000	-0,001	-0,032
-347,693	237,858	-0,049	0,059
-346,679	-200,000	-0,000	-0,047
-345,664	800,000	-0,029	-0,074
-344,650	-29,237	0,059	-0,025
-343,635	455,925	0,117	0,191
-342,620	800,000	0,015	-0,032
-341,606	800,000	-0,074	0,178
-340,591	-13,596	-0,146	0,069
-339,577	-147,036	0,027	0,002
-338,562	-200,000	-0,032	-0,153
-337,548	800,000	0,057	-0,181
-336,533	169,684	0,059	0,061
-335,518	-200,000	-0,001	-0,101
-334,504	-200,000	0,008	0,037
-333,489	589,565	0,039	0,071
-332,475	516,951	-0,036	-0,062
-331,460	622,479	0,068	0,126
-330,445	800,000	-0,020	0,046
-329,431	-200,000	0,002	-0,027
-328,416	-70,984	0,050	0,014
-327,402	-200,000	-0,014	0,059
-326,387	155,368	-0,044	-0,045
-325,372	0,522	-0,018	0,009
-324,358	-200,000	-0,036	-0,118
-323,343	-164,725	-0,035	-0,001
-322,329	-24,726	-0,012	-0,005
-321,314	-200,000	-0,022	-0,120
-320,299	319,514	0,078	-0,109
-319,285	-174,069	0,075	-0,002
-318,270	262,557	0,027	-0,034
-317,256	-200,000	0,010	0,085
-316,241	61,570	0,042	0,030
-315,226	800,000	0,021	-0,061
-314,212	-49,789	0,031	-0,011
-313,197	80,135	-0,039	0,031
-312,183	-200,000	-0,004	0,042
-311,168	-200,000	-0,023	0,110
-310,153	-200,000	-0,021	-0,071
-309,139	800,000	-0,049	-0,149
-308,124	-136,522	-0,056	0,005
-307,110	46,333	0,174	-0,118
-306,095	-52,417	-0,157	0,053
-305,080	800,000	0,021	0,046
-304,066	-200,000	-0,001	0,070
-303,051	131,802	-0,028	-0,026
-302,037	-85,360	0,110	0,025
-301,022	54,691	0,050	0,036
-300,008	167,825	0,095	0,099
-298,993	775,476	0,099	0,199
-297,978	-129,567	-0,068	-0,007
-296,964	457,790	0,133	-0,217
-295,949	-2,947	-0,059	-0,030
-294,935	800,000	-0,026	-0,069
-293,920	6,517	0,084	-0,046
-292,905	520,992	-0,033	-0,056
-291,891	6,542	-0,076	-0,041
-290,876	72,040	-0,013	-0,010
-289,862	207,792	0,099	0,114
-288,847	-48,700	-0,094	0,033
-287,832	-200,000	0,000	-0,031
-286,818	-200,000	0,009	-0,037
-285,803	57,230	0,028	0,020
-284,789	153,097	-0,054	0,054
-283,774	-200,000	-0,003	-0,015
-282,759	-149,360	-0,040	0,002
-281,745	366,932	-0,018	-0,027
-280,730	-200,000	0,029	-0,106
-279,716	-19,324	-0,092	0,042
-278,701	150,422	0,028	0,028
-277,686	131,102	-0,031	0,029
-276,672	4,000	-0,051	-0,027
-275,657	-166,388	0,098	0,003
-274,643	-13,507	-0,075	-0,035
-273,628	329,987	-0,116	-0,164
-272,613	-123,787	0,079	0,009
-271,599	-5,878	0,055	0,027
-270,584	-118,690	0,070	0,009
-269,570	36,570	-0,131	0,084
-268,555	800,000	-0,019	0,047
-267,540	800,000	0,045	-0,107
-266,526	-200,000	0,000	-0,165
-265,511	-200,000	0,022	0,118
-264,497	155,513	0,101	0,102
-263,482	457,062	-0,029	0,047
-262,467	-114,909	-0,041	0,006
-261,453	-111,779	-0,128	-0,019
-260,438	-72,828	-0,046	0,012
-259,424	-64,343	-0,027	0,008
-258,409	-121,795	-0,089	-0,011
-257,395	-200,000	0,004	-0,013
-256,380	-200,000	0,041	0,149
-255,365	298,595	-0,073	0,099
-254,351	201,313	0,042	0,047
-253,336	-65,705	0,162	0,047
-252,322	-200,000	-0,016	-0,069
-251,307	-200,000	-0,025	-0,089
-250,292	16,765	-0,031	-0,018
-249,278	-65,656	0,102	-0,030
-248,263	-200,000	0,012	0,043
-247,249	800,000	-0,028	0,074
-246,234	-200,000	-0,018	-0,088
-245,219	-106,112	0,078	-0,013
-244,205	-102,782	-0,051	0,009
-243,190	-127,419	-0,069	0,007
-242,176	800,000	0,051	0,147
-241,161	65,449	0,127	0,094
-240,146	-111,987	-0,066	0,010
-239,132	-94,377	-0,070	-0,014
-238,117	800,000	-0,030	-0,063
-237,103	27,547	-0,203	-0,124
-236,088	-200,000	-0,005	0,079
-235,073	-49,497	0,015	-0,005
-234,059	-12,337	0,203	-0,097
-233,044	720,548	0,070	0,136
-232,030	-24,911	0,021	0,009
-231,015	-200,000	0,045	0,241
-230,000	59,358	-0,110	-0,079
-228,986	800,000	0,021	-0,052
-227,971	318,685	0,100	-0,139
-226,957	251,678	0,065	-0,080
-225,942	7,502	-0,066	0,036
-224,927	-200,000	-0,006	-0,113
-223,913	-200,000	-0,025	-0,246
-222,898	-39,936	-0,046	0,017
-221,884	-126,680	0,094	0,010
-220,869	800,000	-0,044	0,139
-219,855	532,990	-0,086	0,149
-218,840	-200,000	0,058	0,253
-217,825	-93,314	0,079	-0,016
-216,811	800,000	0,034	-0,078
-215,796	-96,552	-0,069	-0,013
-214,782	723,419	0,030	0,058
-213,767	-106,348	-0,006	-0,001
-212,752	-200,000	-0,003	0,045
-211,738	-167,761	0,082	0,002
-210,723	607,268	-0,023	-0,042
-209,709	789,763	-0,048	0,097
-208,694	800,000	0,056	0,162
-207,679	205,170	0,132	-0,150
-206,665	-200,000	-0,018	0,134
-205,650	147,672	0,070	-0,069
-204,636	-120,476	-0,080	0,010
-203,621	184,288	0,013	-0,014
-202,606	371,683	-0,058	-0,086
-201,592	-200,000	0,023	-0,143
-200,577	61,854	-0,041	0,030
-199,563	205,800	0,059	-0,067
-198,548	128,459	0,088	0,082
-197,533	-178,443	0,087	0,001
-196,519	132,696	0,067	0,063
-195,504	-200,000	-0,004	-0,037
-194,490	775,091	-0,075	-0,149
-193,475	240,575	-0,091	-0,111
-192,460	524,105	-0,079	-0,135
-191,446	355,812	-0,047	-0,068
-190,431	800,000	-0,030	0,063
-189,417	13,244	-0,009	-0,005
-188,402	-44,378	0,080	-0,029
-187,387	47,924	-0,130	-0,088
-186,373	115,924	-0,033	0,030
-185,358	-2,667	0,075	0,038
-184,344	-200,000	0,021	0,110
-183,329	58,603	0,016	0,011
-182,315	-182,410	0,202	-0,003
-181,300	-200,000	0,008	0,199
-180,285	-66,651	0,062	0,018
-179,271	-200,000	-0,111	0,000
-178,256	0,876	-0,018	-0,009
-177,242	138,964	-0,057	-0,054
-176,227	-153,443	0,090	0,004
-175,212	2,187	-0,048	0,025
-174,198	-101,859	0,109	-0,019
-173,183	-19,328	0,053	0,024
-172,169	-56,758	-0,088	-0,028
-171,154	246,383	-0,056	0,069
-170,139	10,048	0,031	0,017
-169,125	-200,000	-0,041	0,199
-168,110	19,389	0,046	0,027
-167,096	240,650	0,093	-0,113
-166,081	-79,056	-0,071	-0,017
-165,066	525,339	-0,051	0,087
-164,052	-200,000	-0,002	-0,010
-163,037	-64,253	0,073	-0,022
-162,023	16,408	-0,062	0,035
-161,008	800,000	0,025	0,061
-159,993	-171,967	0,120	-0,003
-158,979	-200,000	0,028	-0,159
-157,964	213,786	-0,038	0,044
-156,950	-39,460	-0,068	-0,026
-155,935	144,959	-0,119	-0,116
-154,920	-200,000	0,007	0,066
-153,906	395,524	0,085	0,130
-152,891	-96,528	-0,121	-0,023
-151,877	-47,933	0,062	0,022
-150,862	800,000	0,056	-0,140
-149,847	237,275	0,047	-0,057
-148,833	-62,525	-0,039	0,012
-147,818	40,813	0,110	0,072
-146,804	800,000	-0,019	0,041
-145,789	-200,000	0,037	0,249
-144,775	-70,134	-0,131	0,036
-143,760	-200,000	0,003	0,029
-142,745	-200,000	0,017	0,095
-141,731	-200,000	0,017	-0,129
-140,716	183,890	0,100	-0,108
-139,702	-52,317	-0,082	-0,027
-138,687	668,996	0,015	0,029
-137,672	-79,282	0,121	0,030
-136,658	-34,024	-0,171	-0,068
-135,643	800,000	-0,050	-0,105
-134,629	-200,000	0,003	0,028
-133,614	598,235	0,045	0,081
-132,599	-8,717	-0,074	0,036
-131,585	800,000	-0,023	-0,060
-130,570	487,510	0,066	-0,110
-129,556	-200,000	0,021	-0,118
-128,541	-200,000	0,012	-0,046
-127,526	-200,000	-0,023	0,118
-126,512	-1,827	-0,047	-0,024
-125,497	661,024	-0,023	0,043
-124,483	800,000	-0,051	0,142
-123,468	552,977	-0,068	0,119
-122,453	-169,197	0,047	0,001
-121,439	-100,145	0,060	0,011
-120,424	627,583	0,050	0,092
