DTS Sentinel unit serial number:	SN410029Multiplexer serial number:	ORYXHardware model number:	OX2-SRSoftware version number:	ORYX F/W v4,00 Oryx Data Collector v3.7.2.0data status	okinstallation	B6 Nyhavnadifferential loss correction	single-endedforward channel	channel 2reverse channel	N/Adate	2023/12/10time	07:50:08forward acquisition time	300,00reverse acquisition time	0,00gamma	499,1914k internal	0,3123k external	0,3123temperature offset calibration	1,0000default loss term (dB/km)	0,3820temperature slope calibration	1,0000multiplexer offset coefficient	1,0000multiplexer slope coefficient	1,0000fibre end	0,00T internal ref (°C)	22,58T ext. ref 1 (°C)	6,34T ext. ref 2 (°C)	6,35length (m)	temperature (°C)	Stokes	anti-Stokes-744,400	-200,000	-0,008	-0,083
-743,385	168,151	-0,248	0,263
-742,371	4,475	0,071	0,039
-741,356	212,510	-0,063	0,074
-740,342	-200,000	0,006	-0,194
-739,327	800,000	-0,130	0,309
-738,312	502,357	0,050	0,086
-737,298	-24,383	-0,319	0,141
-736,283	-200,000	-0,024	-0,172
-735,269	-60,261	-0,203	0,064
-734,254	800,000	-0,015	0,031
-733,239	-16,384	-0,310	-0,146
-732,225	236,784	0,082	0,101
-731,210	-200,000	-0,015	0,099
-730,196	-200,000	-0,006	-0,078
-729,181	633,393	0,035	0,067
-728,167	-98,918	-0,015	0,003
-727,152	-64,332	-0,096	0,029
-726,137	-99,896	-0,100	-0,018
-725,123	-200,000	-0,005	0,025
-724,108	97,420	-0,095	-0,081
-723,094	-20,949	-0,151	-0,069
-722,079	-200,000	0,001	-0,191
-721,064	-38,191	-0,060	0,024
-720,050	-200,000	0,017	-0,081
-719,035	449,524	0,074	0,122
-718,021	-119,858	-0,021	-0,003
-717,006	187,509	-0,085	-0,094
-715,991	-200,000	0,004	-0,159
-714,977	-200,000	0,002	0,064
-713,962	-100,067	-0,059	0,011
-712,948	536,060	-0,046	0,082
-711,933	-200,000	0,022	0,110
-710,918	-167,504	0,144	0,004
-709,904	-200,000	-0,013	-0,082
-708,889	-15,737	-0,171	-0,081
-707,875	308,818	-0,082	-0,115
-706,860	401,856	-0,023	0,037
-705,845	212,833	-0,036	0,042
-704,831	-200,000	0,015	-0,088
-703,816	105,478	-0,040	0,035
-702,802	-200,000	0,001	-0,007
-701,787	-127,358	-0,032	0,003
-700,772	249,837	0,044	-0,056
-699,758	57,045	0,051	-0,037
-698,743	-200,000	0,012	0,042
-697,729	23,128	0,101	0,062
-696,714	-200,000	-0,013	0,089
-695,699	34,772	-0,088	-0,057
-694,685	84,509	0,091	-0,074
-693,670	-38,959	-0,093	-0,036
-692,656	-200,000	0,020	0,138
-691,641	-90,845	-0,180	-0,038
-690,627	21,849	0,246	0,149
-689,612	-23,163	0,016	0,007
-688,597	800,000	0,029	-0,062
-687,583	-200,000	0,014	-0,104
-686,568	-200,000	-0,012	0,091
-685,554	-200,000	0,012	-0,113
-684,539	12,337	0,063	-0,036
-683,524	60,816	-0,036	-0,027
-682,510	-73,452	-0,151	0,041
-681,495	191,748	0,040	-0,045
-680,481	-152,856	0,090	-0,005
-679,466	35,540	-0,111	-0,072
-678,451	-200,000	-0,025	-0,103
-677,437	800,000	-0,034	-0,111
-676,422	-200,000	-0,026	0,103
-675,408	261,346	0,021	-0,027
-674,393	277,892	-0,013	-0,017
-673,378	-136,525	-0,219	-0,019
-672,364	-200,000	0,005	-0,078
-671,349	410,558	0,011	0,017
-670,335	800,000	0,037	0,085
-669,320	-16,507	-0,082	-0,038
-668,305	-200,000	-0,003	0,022
-667,291	-63,611	-0,140	0,042
-666,276	140,833	-0,048	0,047
-665,262	-200,000	-0,025	-0,108
-664,247	658,554	0,052	-0,100
-663,232	-119,397	-0,034	-0,004
-662,218	-200,000	-0,004	0,073
-661,203	-54,055	0,137	-0,046
-660,189	488,749	-0,039	-0,066
-659,174	397,397	0,075	-0,117
-658,159	-46,726	-0,121	-0,044
-657,145	48,326	0,029	0,020
-656,130	-200,000	-0,022	-0,072
-655,116	-92,385	-0,050	0,010
-654,101	3,284	0,091	0,049
-653,086	-71,635	-0,034	-0,009
-652,072	-200,000	0,002	-0,100
-651,057	-148,251	0,042	-0,003
-650,043	-200,000	-0,010	-0,079
-649,028	800,000	-0,004	-0,010
-648,014	31,290	0,078	0,050
-646,999	-200,000	0,017	0,128
-645,984	333,283	-0,043	0,062
-644,970	712,145	-0,036	0,071
-643,955	630,374	0,057	-0,107
-642,941	78,768	-0,030	-0,024
-641,926	-200,000	-0,025	-0,091
-640,911	-200,000	-0,013	0,067
-639,897	800,000	-0,008	-0,022
-638,882	76,256	0,087	0,068
-637,868	21,728	-0,046	0,028
-636,853	42,416	-0,103	-0,070
-635,838	800,000	-0,046	-0,138
-634,824	800,000	0,037	-0,095
-633,809	349,092	0,053	0,078
-632,795	-200,000	-0,022	0,093
-631,780	-59,216	0,053	-0,017
-630,765	7,526	-0,023	-0,013
-629,751	-11,272	-0,023	-0,011
-628,736	209,003	-0,038	-0,045
-627,722	439,174	-0,052	-0,085
-626,707	22,761	-0,054	0,033
-625,692	232,777	0,028	0,034
-624,678	126,685	-0,023	-0,022
-623,663	-51,602	-0,111	-0,038
-622,649	27,039	-0,138	-0,086
-621,634	-55,121	-0,023	0,008
-620,619	-71,164	-0,254	-0,070
-619,605	-200,000	-0,009	0,086
-618,590	-76,930	0,119	0,031
-617,576	-200,000	-0,011	0,091
-616,561	800,000	-0,030	0,086
-615,546	-200,000	-0,012	-0,056
-614,532	38,913	-0,037	-0,024
-613,517	-114,653	-0,044	-0,006
-612,503	-2,026	0,059	-0,031
-611,488	-114,517	0,057	-0,008
-610,474	23,449	0,097	-0,059
-609,459	32,599	0,047	0,030
-608,444	15,764	0,066	-0,039
-607,430	-73,622	-0,132	0,035
-606,415	-77,987	-0,051	-0,013
-605,401	268,063	-0,064	-0,083
-604,386	800,000	0,083	0,199
-603,371	-200,000	-0,031	0,125
-602,357	-160,694	-0,103	0,004
-601,342	-200,000	0,019	-0,122
-600,328	131,843	0,021	-0,020
-599,313	-36,884	-0,139	0,055
-598,298	-70,975	-0,065	0,018
-597,284	-200,000	-0,004	0,027
-596,269	-68,705	-0,055	0,016
-595,255	-200,000	-0,009	-0,112
-594,240	800,000	0,025	0,059
-593,225	140,720	-0,061	-0,060
-592,211	84,381	-0,076	0,062
-591,196	-129,912	-0,047	-0,005
-590,182	94,020	0,117	-0,098
-589,167	229,333	0,087	0,105
-588,152	92,857	0,122	-0,102
-587,138	-159,252	-0,100	0,004
-586,123	-55,918	0,126	-0,041
-585,109	800,000	0,008	-0,025
-584,094	-74,757	-0,055	-0,014
-583,079	-200,000	-0,006	0,101
-582,065	-105,262	0,023	0,004
-581,050	-200,000	-0,005	-0,028
-580,036	121,949	-0,035	-0,033
-579,021	-148,787	-0,103	-0,006
-578,006	-62,726	-0,054	0,017
-576,992	-200,000	0,031	-0,220
-575,977	800,000	0,034	-0,075
-574,963	-200,000	0,005	0,050
-573,948	632,416	0,054	0,102
-572,934	-13,266	-0,005	0,002
-571,919	-200,000	-0,033	-0,152
-570,904	-200,000	-0,041	-0,157
-569,890	800,000	0,027	-0,073
-568,875	-124,363	0,067	0,008
-567,861	96,639	0,104	0,088
-566,846	-200,000	0,006	-0,042
-565,831	130,059	-0,064	-0,060
-564,817	-21,667	-0,074	-0,033
-563,802	-48,112	-0,018	0,007
-562,788	-2,013	0,081	-0,042
-561,773	187,108	-0,098	0,108
-560,758	326,794	0,071	-0,101
-559,744	800,000	0,038	0,101
-558,729	403,569	0,042	0,066
-557,715	19,160	-0,065	0,038
-556,700	755,530	-0,035	0,069
-555,685	3,293	-0,052	-0,028
-554,671	131,993	-0,018	0,017
-553,656	-16,799	0,017	0,008
-552,642	158,273	0,106	0,108
-551,627	84,332	0,101	0,082
-550,612	399,858	0,029	-0,045
-549,598	338,345	-0,047	-0,068
-548,583	428,513	-0,114	0,183
-547,569	-89,729	0,052	-0,011
-546,554	4,568	-0,089	0,048
-545,539	112,040	0,116	0,104
-544,525	-200,000	-0,021	-0,105
-543,510	-96,673	0,062	-0,012
-542,496	256,854	-0,146	0,186
-541,481	-200,000	-0,021	0,088
-540,466	-107,613	0,084	0,013
-539,452	245,960	0,067	-0,084
-538,437	-200,000	-0,021	0,164
-537,423	800,000	0,067	0,157
-536,408	-32,260	-0,010	0,004
-535,393	-96,191	-0,139	0,027
-534,379	-24,880	0,037	0,016
-533,364	800,000	-0,007	-0,015
-532,350	174,386	-0,011	0,012
-531,335	420,319	-0,037	-0,059
-530,321	-200,000	0,017	0,073
-529,306	-29,125	-0,077	-0,032
-528,291	37,361	-0,051	-0,033
-527,277	580,421	-0,092	-0,168
-526,262	-132,083	-0,101	-0,010
-525,248	-200,000	0,040	-0,151
-524,233	371,190	-0,012	0,018
-523,218	800,000	-0,061	0,138
-522,204	800,000	-0,066	-0,155
-521,189	-158,916	0,061	-0,003
-520,175	-74,554	-0,091	0,024
-519,160	63,942	-0,036	0,027
-518,145	800,000	-0,018	0,039
-517,131	-62,236	0,157	0,048
-516,116	44,867	0,094	0,064
-515,102	70,388	-0,066	0,050
-514,087	-48,681	-0,119	-0,042
-513,072	-200,000	-0,035	-0,149
-512,058	800,000	-0,027	-0,078
-511,043	-91,570	0,109	-0,023
-510,029	-200,000	-0,020	0,155
-509,014	-200,000	-0,025	-0,108
-507,999	5,087	0,090	0,049
-506,985	156,235	-0,116	-0,119
-505,970	667,313	-0,020	0,039
-504,956	65,490	0,043	-0,032
-503,941	113,092	0,043	0,038
-502,926	169,264	0,038	-0,040
-501,912	-200,000	-0,003	0,024
-500,897	-64,293	-0,084	0,025
-499,883	155,094	0,057	0,058
-498,868	800,000	0,039	0,103
-497,853	-38,822	-0,143	-0,055
-496,839	107,372	0,051	0,044
-495,824	329,232	-0,108	0,154
-494,810	-200,000	-0,011	0,108
-493,795	-63,174	-0,083	-0,025
-492,781	-200,000	-0,040	-0,000
-491,766	800,000	-0,027	-0,087
-490,751	29,565	0,004	-0,003
-489,737	-1,782	-0,073	0,038
-488,722	-1,164	-0,082	-0,043
-487,708	-200,000	0,009	-0,068
-486,693	-61,343	-0,099	0,030
-485,678	-200,000	0,007	0,040
-484,664	800,000	0,053	-0,121
-483,649	-166,101	0,042	-0,001
-482,635	18,563	0,002	-0,001
-481,620	800,000	-0,036	0,086
-480,605	-68,457	-0,070	0,020
-479,591	-18,120	-0,129	-0,059
-478,576	-200,000	0,007	0,042
-477,562	-23,906	-0,061	0,027
-476,547	-200,000	0,031	-0,103
-475,532	-200,000	0,036	-0,157
-474,518	-200,000	-0,007	0,032
-473,503	-154,708	0,128	0,006
-472,489	-200,000	0,020	0,183
-471,474	482,051	-0,034	-0,057
-470,459	-102,654	0,102	-0,018
-469,445	167,700	-0,057	0,060
-468,430	-13,127	0,090	-0,043
-467,416	-38,406	-0,033	0,013
-466,401	-200,000	-0,023	0,197
-465,386	-162,410	0,132	0,005
-464,372	-157,743	-0,110	0,005
-463,357	-200,000	0,129	0,000
-462,343	-19,577	-0,111	0,051
-461,328	-200,000	-0,012	-0,121
-460,313	800,000	0,030	-0,086
-459,299	171,788	0,105	0,112
-458,284	800,000	0,042	0,094
-457,270	-142,125	0,103	-0,007
-456,255	-200,000	-0,003	0,068
-455,241	125,430	-0,094	-0,087
-454,226	800,000	-0,034	0,084
-453,211	19,066	0,055	0,032
-452,197	100,888	-0,050	-0,042
-451,182	19,219	0,069	-0,041
-450,168	-200,000	-0,008	-0,041
-449,153	800,000	0,050	0,123
-448,138	-200,000	-0,040	-0,162
-447,124	85,850	-0,067	-0,054
-446,109	-138,349	-0,076	-0,006
-445,095	800,000	0,035	0,091
-444,080	-190,103	0,092	0,001
-443,065	109,141	0,083	0,073
-442,051	40,315	-0,033	0,022
-441,036	17,759	-0,099	0,058
-440,022	-200,000	-0,001	-0,047
-439,007	-156,791	-0,065	0,003
-437,992	360,897	0,031	0,046
-436,978	108,670	0,097	0,086
-435,963	164,744	0,067	0,069
-434,949	-194,699	0,056	0,000
-433,934	164,787	0,053	0,055
-432,919	-37,133	0,109	-0,043
-431,905	800,000	-0,038	0,105
-430,890	-64,832	0,231	-0,068
-429,876	135,268	-0,016	0,015
-428,861	20,167	0,047	0,028
-427,846	1,991	0,074	0,039
-426,832	-16,639	0,065	-0,030
-425,817	172,218	-0,034	0,036
-424,803	-31,743	0,019	0,008
-423,788	-34,153	0,208	0,084
-422,773	133,344	0,109	0,104
-421,759	37,855	-0,096	0,062
-420,744	-102,838	0,161	0,028
-419,730	800,000	0,034	-0,094
-418,715	7,944	-0,028	-0,016
-417,701	800,000	-0,046	-0,111
-416,686	320,491	0,078	0,109
-415,671	800,000	-0,023	-0,065
-414,657	47,760	-0,003	0,002
-413,642	1,640	0,136	-0,072
-412,628	800,000	0,030	-0,065
-411,613	800,000	-0,042	-0,088
-410,598	22,122	-0,086	-0,051
-409,584	800,000	-0,050	-0,148
-408,569	-123,000	0,089	0,010
-407,555	-200,000	0,007	0,056
-406,540	-200,000	-0,004	0,022
-405,525	-200,000	-0,030	-0,175
-404,511	563,431	-0,055	-0,099
-403,496	118,305	-0,090	-0,081
-402,482	-40,000	-0,132	-0,050
-401,467	152,388	-0,040	0,041
-400,452	-200,000	0,004	0,132
-399,438	-17,057	0,093	-0,043
-398,423	261,927	-0,029	-0,037
-397,409	143,009	-0,125	-0,122
-396,394	128,104	0,036	-0,033
-395,379	-25,964	-0,154	0,066
-394,365	-165,588	0,073	-0,002
-393,350	395,060	0,098	0,151
-392,336	579,675	-0,031	0,056
-391,321	-200,000	0,015	-0,134
-390,306	65,435	0,058	-0,043
-389,292	107,605	-0,059	-0,051
-388,277	185,853	0,040	-0,044
-387,263	-22,034	0,100	-0,045
-386,248	300,785	-0,033	-0,045
-385,233	38,977	0,022	0,014
-384,219	51,442	0,092	-0,064
-383,204	13,191	-0,090	-0,051
-382,190	800,000	0,060	-0,135
-381,175	-35,758	-0,023	-0,009
-380,160	800,000	0,026	0,074
-379,146	800,000	-0,017	0,037
-378,131	800,000	-0,013	0,029
-377,117	118,904	0,059	-0,053
-376,102	-177,323	-0,177	-0,003
-375,088	-165,135	-0,099	-0,003
-374,073	800,000	0,031	-0,076
-373,058	229,187	0,063	-0,076
-372,044	12,100	0,074	-0,041
-371,029	800,000	0,037	-0,083
-370,015	-137,562	0,046	0,004
-369,000	-200,000	0,007	-0,111
-367,985	-200,000	0,003	-0,124
-366,971	614,591	0,044	-0,081
-365,956	120,193	0,002	0,002
-364,942	-59,797	-0,039	0,012
-363,927	29,447	-0,031	-0,019
-362,912	165,693	-0,014	-0,015
-361,898	249,381	0,033	0,041
-360,883	-195,262	-0,186	-0,001
-359,869	-81,831	0,128	-0,031
-358,854	-90,049	-0,067	0,014
-357,839	-61,340	0,197	0,061
-356,825	-200,000	0,041	0,135
-355,810	-200,000	-0,002	-0,039
-354,796	468,362	0,035	-0,057
-353,781	-200,000	0,016	0,084
-352,766	800,000	-0,021	-0,049
-351,752	-133,378	0,027	0,002
-350,737	260,538	0,033	-0,041
-349,723	31,194	0,086	-0,054
-348,708	-23,613	0,037	-0,016
-347,693	-99,189	-0,100	0,018
-346,679	136,551	-0,030	-0,029
-345,664	-109,949	-0,124	0,019
-344,650	8,765	-0,039	-0,022
-343,635	-200,000	-0,011	-0,047
-342,620	-125,773	0,040	-0,004
-341,606	259,865	-0,049	-0,062
-340,591	-41,387	-0,067	-0,025
-339,577	-112,918	0,071	0,010
-338,562	-200,000	-0,026	-0,088
-337,548	-8,575	-0,167	0,082
-336,533	740,614	-0,049	0,097
-335,518	50,722	0,151	0,105
-334,504	-79,832	-0,107	-0,026
-333,489	-200,000	-0,013	-0,114
-332,475	-153,545	-0,076	-0,004
-331,460	354,062	-0,043	-0,063
-330,445	375,954	0,069	-0,103
-329,431	-29,906	0,052	0,022
-328,416	-57,759	0,054	-0,017
-327,402	-36,110	-0,104	-0,041
-326,387	-53,868	0,169	-0,056
-325,372	800,000	-0,069	0,165
-324,358	800,000	0,027	-0,061
-323,343	-23,567	-0,113	0,050
-322,329	-200,000	-0,007	0,063
-321,314	-200,000	0,010	0,075
-320,299	41,035	0,055	0,036
-319,285	534,771	0,016	0,028
-318,270	800,000	0,058	-0,123
-317,256	-62,315	-0,196	-0,059
-316,241	-17,590	0,137	-0,063
-315,226	159,645	-0,042	0,043
-314,212	113,892	0,057	0,051
-313,197	138,077	0,034	-0,033
-312,183	372,705	0,033	0,049
-311,168	800,000	0,095	-0,202
-310,153	74,972	-0,169	-0,130
-309,139	108,366	0,090	0,079
-308,124	-200,000	-0,019	0,071
-307,110	29,209	0,068	-0,042
-306,095	-76,864	0,112	0,028
-305,080	722,552	-0,052	0,102
-304,066	173,474	0,044	0,047
-303,051	22,024	-0,066	-0,040
-302,037	75,363	0,017	-0,013
-301,022	-200,000	0,020	-0,086
-300,008	650,453	0,066	0,124
-298,993	800,000	-0,030	0,063
-297,978	-151,724	-0,106	0,006
-296,964	-200,000	-0,009	0,090
-295,949	-8,152	0,056	-0,028
-294,935	19,158	-0,084	-0,049
-293,920	-38,823	-0,113	0,044
-292,905	105,011	-0,033	0,029
-291,891	5,025	0,048	-0,026
-290,876	-200,000	0,012	0,089
-289,862	-148,924	0,090	-0,005
-288,847	-116,128	-0,030	0,004
-287,832	-96,527	0,115	-0,022
-286,818	-200,000	0,001	0,025
-285,803	-36,038	-0,108	-0,043
-284,789	-200,000	-0,022	0,129
-283,774	-200,000	0,019	0,190
-282,759	800,000	-0,057	0,180
-281,745	-67,634	-0,028	-0,008
-280,730	-184,273	-0,231	-0,003
-279,716	-200,000	-0,028	0,116
-278,701	-151,242	0,100	-0,005
-277,686	-81,807	0,061	-0,014
-276,672	154,208	-0,053	-0,053
-275,657	-11,669	0,119	0,057
-274,643	-36,056	0,034	0,013
-273,628	148,255	-0,044	-0,044
-272,613	17,410	-0,123	0,071
-271,599	-200,000	-0,021	0,067
-270,584	-33,507	-0,082	0,033
-269,570	126,458	0,096	0,089
-268,555	800,000	-0,101	-0,231
-267,540	800,000	-0,055	-0,117
-266,526	423,495	-0,072	-0,114
-265,511	-200,000	-0,031	0,194
-264,497	744,283	0,027	-0,054
-263,482	-125,189	0,032	-0,004
-262,467	-80,371	0,115	-0,028
-261,453	163,421	-0,109	0,113
-260,438	227,738	-0,046	-0,055
-259,424	624,285	0,044	-0,081
-258,409	-200,000	0,003	0,027
-257,395	596,401	-0,032	0,059
-256,380	644,537	-0,012	0,023
-255,365	-56,776	-0,123	0,040
-254,351	800,000	-0,009	0,026
-253,336	800,000	0,023	0,055
-252,322	-63,230	0,038	0,011
-251,307	-200,000	-0,005	-0,032
-250,292	-15,517	-0,059	-0,028
-249,278	-200,000	0,007	-0,131
-248,263	12,381	0,071	-0,040
-247,249	-200,000	-0,016	-0,113
-246,234	85,499	-0,152	-0,122
-245,219	800,000	0,029	-0,079
-244,205	800,000	0,037	0,086
-243,190	145,317	0,110	0,107
-242,176	-200,000	-0,048	0,169
-241,161	203,058	0,047	0,053
-240,146	-200,000	0,039	0,159
-239,132	-200,000	-0,013	-0,154
-238,117	-27,592	0,066	-0,028
-237,103	102,280	0,094	0,080
-236,088	800,000	0,063	-0,141
-235,073	-109,013	0,118	0,018
-234,059	-137,092	0,047	0,004
-233,044	-194,513	0,034	0,000
-232,030	91,843	-0,056	0,046
-231,015	62,188	0,160	0,117
-230,000	-200,000	0,011	-0,063
-228,986	800,000	0,011	0,028
-227,971	29,191	0,137	0,085
-226,957	-0,866	0,091	0,047
-225,942	166,186	-0,056	0,058
-224,927	199,671	0,053	0,059
-223,913	314,973	0,015	-0,021
-222,898	441,890	0,051	-0,081
-221,884	800,000	0,059	-0,165
-220,869	161,924	-0,063	0,064
-219,855	418,186	0,005	0,007
-218,840	193,619	-0,096	0,106
-217,825	574,444	0,005	-0,010
-216,811	375,819	-0,004	-0,007
-215,796	-200,000	-0,003	-0,144
-214,782	-129,090	-0,107	-0,011
-213,767	-200,000	-0,008	0,071
-212,752	-130,979	0,026	-0,003
-211,738	-58,995	0,070	0,022
-210,723	35,164	0,084	0,054
-209,709	45,413	-0,108	-0,073
-208,694	800,000	-0,041	-0,091
-207,679	-33,719	0,025	0,010
-206,665	-158,069	0,061	0,003
-205,650	-21,271	-0,062	0,027
-204,636	76,338	-0,072	0,056
-203,621	-127,763	0,088	0,009
-202,606	480,620	0,058	0,097
-201,592	-61,513	0,072	-0,022
-200,577	12,133	-0,028	0,015
-199,563	-200,000	-0,046	-0,161
-198,548	-70,801	0,179	0,049
-197,533	132,965	0,155	0,146
-196,519	-161,895	-0,101	0,004
-195,504	123,071	0,112	-0,102
-194,490	-99,486	-0,109	-0,020
-193,475	264,074	-0,030	-0,038
-192,460	-200,000	0,012	0,092
-191,446	-97,759	0,111	-0,021
-190,431	484,974	-0,079	0,132
-189,417	-200,000	0,006	0,060
-188,402	-200,000	-0,004	-0,021
-187,387	800,000	0,018	-0,041
-186,373	-94,692	-0,089	-0,018
-185,358	-200,000	0,014	0,075
-184,344	5,186	0,111	-0,059
-183,329	-22,286	-0,084	0,037
-182,315	-86,265	-0,051	0,011
-181,300	72,535	-0,020	-0,016
-180,285	-94,597	-0,019	0,004
-179,271	-200,000	-0,008	-0,065
-178,256	319,102	-0,032	0,044
-177,242	-46,290	0,139	-0,050
-176,227	74,133	0,163	-0,125
-175,212	800,000	0,051	0,115
-174,198	88,011	-0,067	-0,054
-173,183	-200,000	-0,147	0,000
-172,169	-106,242	-0,023	0,004
-171,154	-200,000	0,019	-0,104
-170,139	797,745	0,010	0,019
-169,125	299,091	0,094	-0,126
-168,110	89,450	-0,121	-0,099
-167,096	41,130	0,092	0,061
-166,081	26,600	-0,086	-0,052
-165,066	-121,607	-0,066	0,008
-164,052	45,758	0,107	-0,072
-163,037	-200,000	-0,017	-0,102
-162,023	57,328	0,055	-0,039
-161,008	800,000	0,018	-0,052
-159,993	-200,000	-0,009	0,136
-158,979	-200,000	-0,022	-0,139
-157,964	800,000	-0,009	0,022
-156,950	-58,064	0,104	0,033
-155,935	230,779	0,033	0,039
-154,920	722,651	-0,097	0,189
-153,906	15,097	-0,085	0,048
-152,891	-49,796	0,108	0,037
-151,877	135,667	-0,023	-0,021
-150,862	800,000	-0,012	-0,028
-149,847	241,472	0,060	-0,073
-148,833	800,000	-0,011	0,028
-147,818	-113,982	0,067	-0,009
-146,804	-120,757	0,146	-0,018
-145,789	800,000	0,031	0,063
-144,775	679,104	-0,045	0,086
-143,760	66,628	-0,095	0,070
-142,745	800,000	-0,072	-0,157
-141,731	800,000	0,005	-0,013
-140,716	447,862	-0,078	0,125
-139,702	121,086	0,034	-0,031
-138,687	-200,000	-0,030	0,194
-137,672	-119,322	0,033	-0,004
-136,658	-200,000	0,034	0,000
-135,643	-200,000	-0,003	0,027
-134,629	-200,000	-0,009	-0,127
-133,614	746,634	-0,035	-0,069
-132,599	-154,750	0,086	0,004
-131,585	-200,000	0,025	0,111
-130,570	800,000	-0,044	-0,126
-129,556	727,738	-0,046	-0,090
-128,541	633,248	0,017	0,032
-127,526	-200,000	0,008	-0,119
-126,512	64,641	-0,056	0,041
-125,497	-137,844	0,167	-0,013
-124,483	800,000	-0,027	0,076
-123,468	800,000	-0,029	0,067
-122,453	-200,000	0,009	0,070
-121,439	28,288	-0,054	-0,033
-120,424	81,979	-0,100	-0,079
-119,410	800,000	-0,014	-0,030
