DTS Sentinel unit serial number:	SN410029Multiplexer serial number:	ORYXHardware model number:	OX2-SRSoftware version number:	ORYX F/W v4,00 Oryx Data Collector v3.7.2.0data status	okinstallation	B6 Nyhavnadifferential loss correction	single-endedforward channel	channel 2reverse channel	N/Adate	2023/12/10time	22:35:08forward acquisition time	300,00reverse acquisition time	0,00gamma	499,1914k internal	0,3123k external	0,3123temperature offset calibration	1,0000default loss term (dB/km)	0,3820temperature slope calibration	1,0000multiplexer offset coefficient	1,0000multiplexer slope coefficient	1,0000fibre end	0,00T internal ref (°C)	22,37T ext. ref 1 (°C)	6,16T ext. ref 2 (°C)	6,16length (m)	temperature (°C)	Stokes	anti-Stokes-744,400	280,483	0,087	-0,117
-743,385	375,782	-0,094	0,144
-742,371	45,459	0,050	0,034
-741,356	22,244	-0,306	0,186
-740,342	499,846	0,052	0,090
-739,327	400,898	-0,112	0,176
-738,312	41,236	-0,080	-0,054
-737,298	271,200	-0,210	0,276
-736,283	377,343	-0,078	0,119
-735,269	123,254	-0,161	0,150
-734,254	-1,065	0,010	-0,005
-733,239	-121,152	-0,298	-0,037
-732,225	459,968	0,154	0,257
-731,210	722,023	-0,010	0,021
-730,196	369,572	0,026	-0,040
-729,181	-177,756	-0,080	0,001
-728,167	108,668	-0,077	0,068
-727,152	-200,000	0,016	-0,055
-726,137	-200,000	0,046	-0,234
-725,123	140,113	-0,065	-0,064
-724,108	-200,000	-0,003	-0,028
-723,094	-200,000	0,064	-0,229
-722,079	27,918	-0,220	-0,138
-721,064	432,012	-0,056	-0,091
-720,050	800,000	-0,009	-0,021
-719,035	800,000	-0,063	-0,197
-718,021	18,487	0,147	-0,087
-717,006	-200,000	0,023	-0,149
-715,991	-200,000	0,036	-0,118
-714,977	712,031	0,074	-0,148
-713,962	120,526	-0,051	-0,048
-712,948	-63,657	0,116	0,035
-711,933	-22,952	-0,147	0,066
-710,918	-32,626	0,205	-0,084
-709,904	132,154	-0,079	-0,075
-708,889	-200,000	0,005	0,022
-707,875	-200,000	-0,023	-0,081
-706,860	260,447	0,039	0,050
-705,845	-38,738	-0,176	-0,069
-704,831	-92,569	-0,137	-0,028
-703,816	-143,257	0,063	-0,004
-702,802	195,675	-0,052	0,059
-701,787	800,000	-0,049	-0,124
-700,772	-200,000	0,003	0,167
-699,758	-110,371	0,171	-0,026
-698,743	-84,484	0,163	0,038
-697,729	-112,327	-0,101	-0,015
-696,714	410,682	-0,005	-0,007
-695,699	-200,000	0,022	0,151
-694,685	-200,000	0,006	-0,061
-693,670	-200,000	0,040	-0,207
-692,656	113,697	0,058	-0,052
-691,641	68,250	0,108	-0,083
-690,627	151,387	-0,022	-0,022
-689,612	260,492	-0,063	0,081
-688,597	112,379	-0,068	0,061
-687,583	-200,000	-0,058	-0,237
-686,568	-200,000	-0,006	-0,155
-685,554	-200,000	-0,007	-0,208
-684,539	-58,923	0,022	-0,007
-683,524	-200,000	0,017	0,093
-682,510	-200,000	-0,003	-0,193
-681,495	81,130	0,039	0,031
-680,481	-200,000	0,022	0,112
-679,466	139,828	-0,056	0,055
-678,451	160,447	-0,081	-0,084
-677,437	-171,219	-0,089	-0,002
-676,422	321,592	-0,015	0,021
-675,408	-99,135	-0,033	-0,006
-674,393	-15,875	0,115	-0,054
-673,378	-35,624	0,025	0,010
-672,364	-103,923	-0,077	-0,013
-671,349	90,422	-0,127	-0,106
-670,335	386,024	0,093	0,143
-669,320	416,842	-0,053	0,084
-668,305	232,858	0,020	0,024
-667,291	136,096	0,081	0,079
-666,276	800,000	-0,028	-0,064
-665,262	-74,344	-0,079	0,021
-664,247	235,190	-0,118	-0,145
-663,232	-23,318	-0,101	-0,045
-662,218	779,243	0,038	-0,078
-661,203	800,000	-0,020	-0,044
-660,189	325,629	-0,046	0,066
-659,174	-84,395	-0,017	0,004
-658,159	-200,000	-0,001	-0,018
-657,145	-48,419	-0,069	-0,024
-656,130	800,000	-0,051	-0,138
-655,116	356,884	0,054	0,080
-654,101	42,321	0,121	0,081
-653,086	800,000	-0,046	0,105
-652,072	40,478	-0,110	0,074
-651,057	-200,000	-0,014	-0,082
-650,043	-200,000	0,012	-0,061
-649,028	800,000	-0,057	-0,126
-648,014	453,849	-0,010	-0,017
-646,999	-88,457	0,037	0,008
-645,984	-200,000	0,007	0,111
-644,970	-22,405	-0,096	0,043
-643,955	571,702	-0,036	-0,065
-642,941	358,248	-0,097	-0,144
-641,926	-200,000	-0,001	-0,116
-640,911	-72,622	0,080	0,022
-639,897	54,048	0,066	-0,047
-638,882	-90,125	-0,079	0,017
-637,868	213,318	0,051	-0,060
-636,853	496,243	-0,080	0,137
-635,838	-124,002	-0,142	0,016
-634,824	-92,461	0,043	0,009
-633,809	-186,293	-0,124	-0,001
-632,795	800,000	0,043	0,092
-631,780	32,772	0,107	0,069
-630,765	-48,192	-0,081	0,029
-629,751	-200,000	-0,003	-0,063
-628,736	734,255	-0,046	-0,092
-627,722	-61,381	-0,172	-0,053
-626,707	-200,000	0,000	-0,127
-625,692	85,944	-0,154	-0,126
-624,678	-200,000	-0,008	0,129
-623,663	254,004	0,045	0,057
-622,649	435,815	-0,082	-0,132
-621,634	-78,837	0,088	0,022
-620,619	-200,000	0,011	-0,146
-619,605	227,383	-0,017	0,021
-618,590	86,093	0,018	0,015
-617,576	-200,000	0,050	0,168
-616,561	-200,000	-0,003	0,044
-615,546	-200,000	-0,013	-0,118
-614,532	-76,955	-0,057	-0,015
-613,517	800,000	0,032	-0,099
-612,503	66,345	0,007	0,005
-611,488	-200,000	-0,013	0,112
-610,474	762,692	0,027	0,055
-609,459	-160,031	-0,117	0,005
-608,444	-200,000	-0,004	-0,079
-607,430	-200,000	0,015	-0,149
-606,415	482,908	0,052	0,087
-605,401	650,995	-0,011	0,022
-604,386	80,977	-0,101	-0,081
-603,371	105,215	-0,087	0,076
-602,357	-200,000	0,024	-0,078
-601,342	302,882	0,018	-0,025
-600,328	-14,519	-0,063	-0,030
-599,313	297,113	0,092	-0,125
-598,298	127,608	-0,083	-0,078
-597,284	29,356	0,105	0,066
-596,269	800,000	0,004	0,009
-595,255	-59,381	0,073	-0,023
-594,240	-200,000	0,020	-0,074
-593,225	25,273	-0,090	-0,055
-592,211	800,000	-0,052	-0,169
-591,196	-171,467	-0,089	0,002
-590,182	-59,281	0,146	-0,046
-589,167	-79,378	0,081	-0,020
-588,152	487,919	0,039	0,066
-587,138	34,270	-0,051	-0,033
-586,123	406,336	0,005	0,008
-585,109	800,000	-0,016	0,044
-584,094	-93,645	0,081	-0,016
-583,079	-92,397	0,146	0,030
-582,065	-95,440	-0,034	-0,007
-581,050	-50,222	-0,092	0,032
-580,036	159,145	-0,028	0,028
-579,021	192,600	-0,068	-0,076
-578,006	117,723	0,029	-0,027
-576,992	456,069	-0,010	0,017
-575,977	62,534	0,068	0,050
-574,963	314,419	-0,066	0,092
-573,948	-200,000	0,029	0,120
-572,934	-78,082	0,146	0,037
-571,919	339,211	0,046	-0,067
-570,904	-90,703	-0,153	0,032
-569,890	221,083	0,023	-0,028
-568,875	-155,776	0,121	-0,006
-567,861	800,000	0,045	-0,102
-566,846	69,314	-0,075	-0,057
-565,831	-59,538	-0,080	-0,025
-564,817	-141,981	-0,039	-0,003
-563,802	-200,000	-0,020	-0,082
-562,788	-200,000	0,002	0,074
-561,773	-129,002	0,082	0,008
-560,758	239,273	-0,083	0,102
-559,744	-126,735	0,053	-0,006
-558,729	-75,381	0,053	0,014
-557,715	110,539	-0,086	-0,076
-556,700	-200,000	-0,018	-0,060
-555,685	-93,754	-0,054	-0,011
-554,671	176,432	0,026	0,028
-553,656	-8,655	0,016	-0,008
-552,642	751,014	-0,037	0,074
-551,627	800,000	-0,009	0,027
-550,612	-200,000	-0,021	-0,099
-549,598	-200,000	0,012	-0,066
-548,583	-200,000	0,179	-0,000
-547,569	332,461	0,052	-0,075
-546,554	800,000	0,036	-0,090
-545,539	700,117	-0,032	0,062
-544,525	-200,000	-0,008	0,073
-543,510	261,850	-0,096	0,124
-542,496	-27,912	-0,141	-0,060
-541,481	-81,242	-0,042	0,010
-540,466	-17,782	-0,128	-0,059
-539,452	-63,963	0,040	0,012
-538,437	-200,000	-0,040	0,000
-537,423	82,135	0,141	-0,113
-536,408	583,739	0,028	0,051
-535,393	-78,565	-0,133	0,033
-534,379	-99,511	0,108	0,020
-533,364	-200,000	-0,021	0,071
-532,350	-200,000	0,034	0,124
-531,335	136,222	0,083	0,080
-530,321	563,985	-0,052	-0,094
-529,306	213,296	0,054	-0,063
-528,291	800,000	-0,043	-0,099
-527,277	-63,605	-0,091	0,027
-526,262	800,000	-0,055	0,132
-525,248	-56,432	0,084	0,027
-524,233	286,327	-0,017	-0,023
-523,218	101,164	-0,053	0,046
-522,204	-200,000	0,016	0,094
-521,189	800,000	-0,042	-0,095
-520,175	-136,216	-0,146	0,012
-519,160	-200,000	-0,023	0,144
-518,145	35,151	-0,107	0,069
-517,131	468,515	0,123	0,205
-516,116	-43,028	0,020	0,008
-515,102	-200,000	0,014	0,090
-514,087	-35,368	-0,071	0,028
-513,072	87,129	-0,066	0,054
-512,058	-51,888	-0,038	-0,013
-511,043	331,408	-0,021	-0,030
-510,029	-71,837	0,154	-0,042
-509,014	-60,201	0,103	0,032
-507,999	-109,052	-0,036	-0,006
-506,985	-200,000	0,007	-0,089
-505,970	-112,979	-0,117	0,017
-504,956	-200,000	-0,006	-0,049
-503,941	-31,220	0,119	0,049
-502,926	-22,028	-0,129	0,058
-501,912	-44,064	0,063	-0,023
-500,897	18,011	-0,014	-0,008
-499,883	211,984	0,037	-0,043
-498,868	800,000	0,017	-0,047
-497,853	-85,764	-0,115	-0,026
-496,839	95,133	0,126	0,106
-495,824	156,569	-0,078	0,080
-494,810	-68,768	0,162	-0,046
-493,795	-200,000	-0,006	-0,125
-492,781	-118,057	-0,127	0,017
-491,766	-164,842	0,067	-0,002
-490,751	251,139	0,072	0,090
-489,737	-9,244	-0,035	0,017
-488,722	800,000	0,047	0,123
-487,708	13,194	0,056	0,032
-486,693	-69,128	-0,076	0,021
-485,678	65,319	0,065	-0,049
-484,664	-56,341	-0,066	0,022
-483,649	-64,624	0,031	-0,009
-482,635	-15,395	-0,051	-0,024
-481,620	11,724	0,124	0,070
-480,605	-200,000	0,008	0,099
-479,591	800,000	0,053	-0,113
-478,576	800,000	0,056	0,125
-477,562	-200,000	-0,028	0,097
-476,547	-44,297	-0,044	-0,016
-475,532	-127,231	0,178	0,019
-474,518	800,000	0,039	0,083
-473,503	15,251	0,096	-0,055
-472,489	799,554	0,058	-0,119
-471,474	-51,261	-0,122	-0,042
-470,459	181,364	-0,012	-0,013
-469,445	-200,000	-0,015	0,078
-468,430	-200,000	-0,004	-0,023
-467,416	-32,845	0,055	-0,022
-466,401	682,326	0,025	-0,048
-465,386	22,134	0,067	-0,040
-464,372	108,467	0,022	0,019
-463,357	-200,000	0,008	0,048
-462,343	303,387	-0,030	0,042
-461,328	-104,221	0,082	0,014
-460,313	356,881	0,105	0,155
-459,299	-5,028	0,067	0,034
-458,284	-64,486	0,117	-0,035
-457,270	800,000	-0,022	0,071
-456,255	-2,017	-0,052	-0,027
-455,241	-24,260	0,054	0,024
-454,226	-200,000	-0,016	-0,062
-453,211	160,885	0,051	-0,053
-452,197	-200,000	-0,044	0,228
-451,182	-200,000	-0,009	-0,034
-450,168	218,615	0,122	0,143
-449,153	-10,763	-0,109	0,053
-448,138	87,898	0,075	-0,061
-447,124	239,377	-0,131	-0,161
-446,109	800,000	0,007	0,022
-445,095	-76,741	0,016	-0,004
-444,080	187,397	-0,093	-0,102
-443,065	475,735	-0,111	0,186
-442,051	96,022	0,085	0,071
-441,036	236,150	-0,076	-0,092
-440,022	153,642	-0,037	-0,037
-439,007	241,713	-0,016	-0,019
-437,992	-66,056	0,089	0,026
-436,978	151,010	0,102	0,103
-435,963	-19,383	-0,012	-0,006
-434,949	-153,827	0,159	-0,008
-433,934	4,872	-0,012	0,006
-432,919	641,458	0,057	-0,107
-431,905	247,741	-0,061	0,076
-430,890	-200,000	0,009	-0,038
-429,876	-163,361	0,057	-0,002
-428,861	45,566	-0,122	-0,083
-427,846	-25,486	-0,041	-0,018
-426,832	252,691	0,037	-0,046
-425,817	119,047	-0,068	-0,062
-424,803	43,987	-0,102	-0,069
-423,788	-173,231	0,136	0,003
-422,773	401,179	-0,047	0,073
-421,759	-146,029	0,151	0,010
-420,744	-108,260	-0,150	0,024
-419,730	14,243	-0,051	0,029
-418,715	631,642	-0,065	0,123
-417,701	-68,481	0,043	0,012
-416,686	89,972	0,088	-0,072
-415,671	-85,503	0,053	-0,012
-414,657	-200,000	-0,014	-0,077
-413,642	272,170	0,083	0,108
-412,628	-111,262	-0,143	-0,021
-411,613	92,840	-0,119	0,099
-410,598	232,882	0,032	0,039
-409,584	445,175	0,084	0,136
-408,569	15,469	0,157	0,090
-407,555	58,116	-0,032	0,023
-406,540	-78,236	-0,093	-0,023
-405,525	354,931	0,054	-0,079
-404,511	800,000	0,089	-0,223
-403,496	-29,209	-0,078	-0,033
-402,482	-85,758	-0,150	0,034
-401,467	-152,336	0,193	-0,010
-400,452	800,000	-0,029	0,093
-399,438	-56,547	-0,059	-0,019
-398,423	157,302	-0,105	-0,106
-397,409	14,486	-0,092	0,053
-396,394	-200,000	-0,011	0,133
-395,379	-44,090	0,058	0,021
-394,365	-92,547	-0,064	-0,013
-393,350	-125,211	0,071	-0,008
-392,336	-200,000	0,021	0,100
-391,321	-78,696	0,098	-0,024
-390,306	186,730	-0,055	-0,060
-389,292	-177,586	-0,147	0,003
-388,277	-10,568	0,067	-0,032
-387,263	-124,342	-0,030	0,003
-386,248	-200,000	0,001	0,073
-385,233	90,717	0,042	-0,035
-384,219	-200,000	-0,010	-0,085
-383,204	-22,296	0,043	-0,019
-382,190	313,690	0,060	-0,083
-381,175	-200,000	-0,007	-0,205
-380,160	60,514	-0,133	0,097
-379,146	509,613	-0,029	0,049
-378,131	-200,000	0,010	-0,033
-377,117	46,151	-0,076	-0,051
-376,102	31,647	0,170	-0,107
-375,088	-74,074	-0,130	0,034
-374,073	360,310	0,021	-0,032
-373,058	-200,000	-0,000	-0,159
-372,044	-7,582	-0,080	-0,040
-371,029	-143,388	0,064	-0,004
-370,015	25,674	0,117	0,071
-369,000	-179,289	-0,083	-0,001
-367,985	-167,140	0,052	-0,002
-366,971	441,353	0,066	-0,106
-365,956	28,954	0,077	-0,048
-364,942	-200,000	-0,001	0,041
-363,927	-120,357	0,117	0,014
-362,912	800,000	0,015	-0,040
-361,898	308,499	-0,014	-0,019
-360,883	11,144	0,066	0,037
-359,869	-177,837	-0,207	-0,004
-358,854	-65,652	-0,064	-0,019
-357,839	800,000	0,044	0,118
-356,825	-25,848	-0,090	0,039
-355,810	64,092	-0,054	0,040
-354,796	17,123	-0,087	-0,051
-353,781	800,000	-0,051	-0,131
-352,766	-200,000	0,012	0,060
-351,752	-171,718	0,109	0,003
-350,737	-58,860	0,128	-0,040
-349,723	49,014	0,143	0,098
-348,708	800,000	0,021	0,051
-347,693	-2,507	0,032	-0,017
-346,679	-200,000	-0,012	0,041
-345,664	371,645	0,047	0,070
-344,650	-200,000	0,029	-0,096
-343,635	-4,131	0,134	-0,068
-342,620	-1,312	-0,080	0,042
-341,606	-200,000	0,004	0,046
-340,591	137,520	0,033	-0,031
-339,577	-200,000	0,001	-0,015
-338,562	-110,818	0,054	-0,008
-337,548	417,053	-0,041	0,064
-336,533	426,331	0,020	-0,032
-335,518	-200,000	-0,001	0,106
-334,504	-66,947	0,052	0,015
-333,489	290,714	-0,021	-0,028
-332,475	110,058	-0,080	-0,070
-331,460	-86,497	-0,143	-0,032
-330,445	800,000	0,086	-0,238
-329,431	-200,000	0,029	0,187
-328,416	-112,715	0,111	-0,016
-327,402	-200,000	0,027	0,119
-326,387	48,650	0,064	0,044
-325,372	11,566	-0,138	-0,078
-324,358	-36,037	-0,133	-0,053
-323,343	-142,495	0,119	0,008
-322,329	-200,000	0,001	0,097
-321,314	65,168	0,056	0,041
-320,299	106,054	-0,018	-0,015
-319,285	326,592	-0,046	-0,065
-318,270	617,726	-0,020	-0,036
-317,256	235,921	0,069	-0,084
-316,241	800,000	0,036	-0,088
-315,226	-200,000	0,001	-0,046
-314,212	-200,000	-0,014	0,069
-313,197	-142,495	-0,009	-0,001
-312,183	-200,000	0,027	0,134
-311,168	-33,207	-0,019	-0,008
-310,153	-69,200	-0,162	0,045
-309,139	-200,000	0,021	0,071
-308,124	103,713	0,021	-0,018
-307,110	194,066	0,051	0,056
-306,095	22,838	0,038	0,023
-305,080	-100,167	-0,057	0,010
-304,066	8,081	-0,094	0,052
-303,051	-200,000	0,021	-0,090
-302,037	-200,000	-0,024	-0,122
-301,022	-200,000	0,007	-0,054
-300,008	-200,000	0,037	0,121
-298,993	149,937	-0,044	0,043
-297,978	-33,714	-0,150	0,060
-296,964	36,063	-0,099	-0,064
-295,949	305,886	-0,076	-0,103
-294,935	-200,000	0,030	-0,138
-293,920	-134,344	0,146	-0,013
-292,905	-200,000	-0,018	-0,083
-291,891	209,458	0,069	0,079
-290,876	110,023	-0,085	-0,075
-289,862	263,593	0,019	0,025
-288,847	-129,365	0,120	0,012
-287,832	-85,782	-0,132	0,030
-286,818	-200,000	0,009	-0,100
-285,803	8,740	0,123	-0,068
-284,789	665,274	0,011	0,021
-283,774	-133,227	-0,181	-0,017
-282,759	77,125	0,142	0,110
-281,745	-8,398	-0,042	-0,021
-280,730	-101,597	-0,038	-0,007
-279,716	0,960	-0,071	0,037
-278,701	800,000	0,021	-0,061
-277,686	-200,000	0,008	0,132
-276,672	668,484	0,065	0,124
-275,657	-0,604	0,066	0,034
-274,643	-181,223	-0,099	0,001
-273,628	366,661	-0,029	-0,043
-272,613	584,453	0,033	-0,060
-271,599	-11,364	0,107	0,051
-270,584	-126,352	0,083	0,009
-269,570	141,285	-0,047	-0,046
-268,555	7,014	-0,083	-0,045
-267,540	-5,464	-0,067	-0,034
-266,526	-200,000	-0,002	-0,069
-265,511	-200,000	0,015	-0,059
-264,497	-200,000	-0,039	0,209
-263,482	-200,000	0,037	0,160
-262,467	-141,633	0,045	0,003
-261,453	-200,000	-0,023	0,076
-260,438	-93,857	0,087	0,017
-259,424	-87,710	-0,068	-0,015
-258,409	360,973	0,073	-0,107
-257,395	115,244	-0,043	0,038
-256,380	272,364	0,054	-0,070
-255,365	81,845	0,138	-0,109
-254,351	-200,000	0,004	0,041
-253,336	-90,597	0,073	0,015
-252,322	800,000	-0,047	0,122
-251,307	185,665	0,057	0,062
-250,292	128,302	0,039	-0,036
-249,278	21,818	-0,051	-0,030
-248,263	-116,411	-0,096	0,013
-247,249	-53,870	-0,255	-0,084
-246,234	164,898	-0,029	-0,030
-245,219	356,165	0,019	-0,027
-244,205	-42,163	0,146	-0,054
-243,190	-101,098	-0,101	-0,018
-242,176	-82,409	0,078	-0,018
-241,161	800,000	-0,030	0,067
-240,146	800,000	-0,040	0,096
-239,132	40,133	-0,105	0,069
-238,117	136,926	0,113	0,108
-237,103	111,045	0,018	-0,016
-236,088	-75,101	0,074	0,019
-235,073	-44,267	-0,110	-0,040
-234,059	-42,965	-0,081	-0,030
-233,044	218,698	-0,035	-0,041
-232,030	-200,000	-0,004	-0,032
-231,015	-158,581	-0,130	0,005
-230,000	8,164	0,047	0,026
-228,986	-200,000	-0,027	-0,097
-227,971	8,386	-0,126	0,069
-226,957	-129,946	0,203	0,020
-225,942	493,668	0,049	-0,082
-224,927	138,808	-0,032	-0,030
-223,913	-144,199	-0,116	-0,008
-222,898	34,604	0,043	-0,027
-221,884	-105,916	-0,049	-0,008
-220,869	281,191	0,046	-0,061
-219,855	74,134	0,013	0,010
-218,840	-200,000	0,016	0,085
-217,825	53,138	-0,012	-0,008
-216,811	-200,000	-0,011	-0,113
-215,796	44,666	0,098	-0,066
-214,782	191,801	-0,039	-0,042
-213,767	-73,983	-0,126	0,033
-212,752	83,421	-0,049	-0,039
-211,738	-200,000	-0,003	0,067
-210,723	-98,598	-0,039	-0,007
-209,709	-200,000	-0,008	-0,073
-208,694	526,892	-0,118	0,204
-207,679	711,451	0,047	0,090
-206,665	31,578	0,168	-0,105
-205,650	49,883	0,087	-0,060
-204,636	0,219	0,055	0,029
-203,621	84,318	0,051	0,040
-202,606	800,000	0,047	-0,140
-201,592	103,214	-0,144	-0,123
-200,577	-200,000	0,015	-0,207
-199,563	115,888	0,047	0,042
-198,548	217,016	0,103	0,120
-197,533	-200,000	0,003	0,079
-196,519	623,300	-0,053	-0,098
-195,504	69,091	-0,112	0,084
-194,490	477,876	-0,040	0,066
-193,475	-200,000	-0,009	-0,086
-192,460	212,948	-0,082	0,095
-191,446	193,323	0,056	0,062
-190,431	-190,416	0,060	-0,000
-189,417	-180,750	0,148	0,002
-188,402	-199,434	0,096	-0,000
-187,387	800,000	0,047	-0,116
-186,373	-133,333	0,076	0,007
-185,358	513,950	-0,095	0,163
-184,344	-57,637	-0,057	0,018
-183,329	113,131	-0,083	0,073
-182,315	-200,000	-0,004	0,036
-181,300	56,749	0,047	-0,033
-180,285	-187,320	0,093	-0,001
-179,271	-198,272	-0,133	-0,001
-178,256	-200,000	-0,014	-0,070
-177,242	-200,000	-0,010	0,067
-176,227	53,551	0,051	0,036
-175,212	488,172	0,050	-0,083
-174,198	48,878	0,076	-0,052
-173,183	34,345	-0,107	-0,068
-172,169	-200,000	0,002	-0,142
-171,154	789,728	-0,046	0,093
-170,139	-129,298	-0,065	-0,007
-169,125	310,674	0,065	0,088
-168,110	218,268	-0,067	0,078
-167,096	-200,000	-0,068	0,222
-166,081	-108,457	0,036	0,006
-165,066	353,313	0,073	-0,106
-164,052	-92,477	-0,112	0,023
-163,037	-200,000	0,003	-0,136
-162,023	30,806	0,111	-0,069
-161,008	118,801	0,075	-0,068
-159,993	90,164	-0,011	0,009
-158,979	-200,000	-0,001	0,021
-157,964	130,889	-0,066	-0,062
-156,950	192,195	-0,021	-0,023
-155,935	333,299	-0,097	0,138
-154,920	122,514	-0,016	0,015
-153,906	147,441	0,142	0,140
-152,891	-69,306	0,162	0,045
-151,877	7,954	-0,170	0,093
-150,862	113,513	-0,072	-0,064
-149,847	465,437	0,053	-0,087
-148,833	314,151	0,064	0,088
-147,818	-200,000	0,001	0,020
-146,804	-154,112	0,127	-0,006
-145,789	800,000	-0,018	0,039
-144,775	-35,541	-0,050	-0,020
-143,760	202,661	-0,077	-0,086
-142,745	561,449	-0,045	-0,080
-141,731	-200,000	-0,001	-0,042
-140,716	-125,521	-0,046	-0,005
-139,702	-200,000	0,032	0,103
-138,687	-122,419	0,095	0,011
-137,672	-101,857	0,048	0,008
-136,658	-54,021	0,105	-0,035
-135,643	235,779	-0,107	-0,129
-134,629	538,697	-0,095	-0,166
-133,614	-34,001	0,087	-0,034
-132,599	-200,000	0,016	-0,081
-131,585	-105,323	-0,075	0,012
-130,570	462,265	-0,027	-0,044
-129,556	-200,000	-0,029	0,202
-128,541	-200,000	0,034	-0,119
-127,526	109,136	-0,208	-0,181
-126,512	-128,021	0,081	0,008
-125,497	800,000	-0,025	0,057
-124,483	-28,843	-0,032	-0,014
-123,468	274,517	-0,103	-0,133
-122,453	32,979	0,021	0,013
-121,439	800,000	0,021	-0,054
-120,424	-63,744	0,150	-0,044
-119,410	-40,392	-0,076	-0,028
