DTS Sentinel unit serial number:	SN410029Multiplexer serial number:	ORYXHardware model number:	OX2-SRSoftware version number:	ORYX F/W v4,00 Oryx Data Collector v3.7.2.0data status	okinstallation	B6 Nyhavnadifferential loss correction	single-endedforward channel	channel 2reverse channel	N/Adate	2023/12/07time	15:50:08forward acquisition time	300,00reverse acquisition time	0,00gamma	499,1914k internal	0,3165k external	0,3165temperature offset calibration	1,0000default loss term (dB/km)	0,3820temperature slope calibration	1,0000multiplexer offset coefficient	1,0000multiplexer slope coefficient	1,0000fibre end	0,00T internal ref (°C)	14,47T ext. ref 1 (°C)	-2,02T ext. ref 2 (°C)	-2,04length (m)	temperature (°C)	Stokes	anti-Stokes-744,400	800,000	-0,047	0,103
-743,385	38,947	-0,187	-0,123
-742,371	-200,000	0,031	0,115
-741,356	-63,368	-0,282	0,085
-740,342	48,812	0,139	0,096
-739,327	-143,137	-0,357	-0,025
-738,312	-34,865	0,087	-0,035
-737,298	-97,663	-0,332	0,063
-736,283	77,920	0,083	0,065
-735,269	-145,968	-0,247	-0,016
-734,254	-200,000	0,061	0,231
-733,239	-99,003	-0,389	-0,072
-732,225	-161,233	0,126	-0,005
-731,210	-28,782	-0,088	0,037
-730,196	-69,968	0,163	0,045
-729,181	4,584	-0,127	-0,068
-728,167	165,608	0,023	-0,024
-727,152	-81,662	-0,061	0,015
-726,137	-200,000	0,011	-0,076
-725,123	47,884	0,083	-0,057
-724,108	800,000	-0,055	-0,119
-723,094	141,035	-0,084	-0,082
-722,079	800,000	0,024	0,076
-721,064	309,072	0,020	-0,028
-720,050	-175,402	0,076	-0,001
-719,035	484,268	0,029	-0,049
-718,021	105,640	-0,098	0,085
-717,006	100,417	-0,071	-0,060
-715,991	800,000	-0,068	-0,171
-714,977	800,000	0,043	-0,139
-713,962	230,805	0,052	-0,063
-712,948	800,000	-0,009	-0,029
-711,933	304,373	0,079	0,108
-710,918	-14,057	0,050	-0,024
-709,904	800,000	-0,035	-0,105
-708,889	259,362	-0,071	-0,091
-707,875	800,000	-0,008	0,018
-706,860	-59,636	-0,050	0,016
-705,845	-200,000	0,004	-0,061
-704,831	-200,000	0,106	0,000
-703,816	321,516	0,004	-0,005
-702,802	422,538	0,045	-0,072
-701,787	800,000	-0,076	-0,163
-700,772	-200,000	0,017	-0,152
-699,758	-98,384	-0,115	0,022
-698,743	166,766	0,075	0,079
-697,729	113,885	0,062	-0,055
-696,714	236,999	-0,044	-0,054
-695,699	80,450	-0,080	-0,063
-694,685	-130,697	-0,114	-0,011
-693,670	-193,014	-0,070	0,000
-692,656	-71,451	-0,039	-0,011
-691,641	-132,278	-0,064	0,006
-690,627	219,025	0,040	0,047
-689,612	-200,000	0,005	-0,073
-688,597	133,845	0,082	0,078
-687,583	-3,139	0,113	-0,058
-686,568	800,000	-0,035	-0,085
-685,554	331,957	-0,031	-0,045
-684,539	135,289	0,021	-0,020
-683,524	-37,544	0,058	-0,023
-682,510	618,397	0,023	-0,043
-681,495	56,381	-0,081	-0,058
-680,481	431,905	-0,037	-0,060
-679,466	-200,000	0,010	-0,100
-678,451	33,380	-0,101	-0,064
-677,437	-139,220	-0,116	-0,009
-676,422	-200,000	0,007	0,110
-675,408	-200,000	-0,011	-0,088
-674,393	-16,924	0,098	0,045
-673,378	-200,000	0,007	0,089
-672,364	-200,000	0,014	-0,116
-671,349	-84,684	-0,061	-0,014
-670,335	800,000	-0,050	0,116
-669,320	-25,548	0,132	-0,057
-668,305	-200,000	0,014	-0,260
-667,291	334,502	0,075	-0,106
-666,276	135,204	-0,050	-0,048
-665,262	161,689	-0,024	-0,025
-664,247	-200,000	0,012	-0,150
-663,232	43,849	-0,049	-0,033
-662,218	-165,603	-0,148	-0,005
-661,203	-200,000	-0,020	0,099
-660,189	-200,000	0,004	-0,132
-659,174	-200,000	-0,009	-0,108
-658,159	800,000	0,033	-0,068
-657,145	-138,669	-0,025	0,002
-656,130	-98,849	0,110	-0,020
-655,116	-48,940	-0,067	-0,024
-654,101	-61,976	0,163	0,050
-653,086	-200,000	0,001	-0,056
-652,072	562,245	-0,051	-0,091
-651,057	-29,104	-0,117	-0,049
-650,043	-200,000	0,026	-0,088
-649,028	-200,000	-0,011	0,052
-648,014	234,492	-0,032	0,038
-646,999	-37,494	0,044	-0,017
-645,984	24,726	0,039	0,023
-644,970	-166,368	0,017	-0,001
-643,955	86,915	-0,049	-0,040
-642,941	10,807	-0,034	-0,019
-641,926	208,363	-0,070	0,081
-640,911	-68,527	0,075	-0,021
-639,897	-38,655	0,126	0,049
-638,882	800,000	-0,039	0,119
-637,868	-200,000	-0,028	0,150
-636,853	381,219	0,051	-0,077
-635,838	275,212	-0,026	-0,034
-634,824	25,253	-0,022	-0,013
-633,809	-133,040	-0,052	-0,005
-632,795	336,161	-0,051	0,073
-631,780	800,000	0,033	0,090
-630,765	-200,000	-0,002	-0,127
-629,751	-13,798	-0,058	0,027
-628,736	82,443	-0,078	-0,062
-627,722	-200,000	0,024	0,088
-626,707	2,563	-0,105	-0,055
-625,692	-200,000	-0,010	0,144
-624,678	355,422	-0,022	0,032
-623,663	10,193	0,122	-0,067
-622,649	800,000	-0,094	-0,210
-621,634	-200,000	0,034	0,120
-620,619	-51,583	-0,050	-0,017
-619,605	75,514	-0,081	-0,062
-618,590	53,649	-0,122	0,085
-617,576	-99,489	0,086	0,016
-616,561	-200,000	-0,013	-0,051
-615,546	-4,009	-0,136	-0,069
-614,532	-129,988	0,064	0,006
-613,517	-65,219	-0,047	0,014
-612,503	29,759	0,022	0,014
-611,488	-200,000	0,024	-0,097
-610,474	-17,745	0,050	-0,023
-609,459	-200,000	-0,007	-0,062
-608,444	-8,075	-0,107	-0,052
-607,430	301,263	-0,044	-0,059
-606,415	10,923	0,021	-0,012
-605,401	800,000	-0,065	0,140
-604,386	-104,265	0,072	0,012
-603,371	-46,354	-0,076	0,027
-602,357	800,000	0,009	0,024
-601,342	358,546	0,071	0,104
-600,328	-200,000	0,007	-0,104
-599,313	-200,000	-0,019	-0,063
-598,298	-108,393	-0,089	0,014
-597,284	45,448	0,090	0,061
-596,269	372,168	0,077	0,115
-595,255	-200,000	0,019	-0,064
-594,240	95,473	0,045	0,037
-593,225	193,759	-0,109	-0,121
-592,211	138,432	-0,053	0,051
-591,196	-200,000	-0,008	0,070
-590,182	800,000	0,076	0,166
-589,167	444,259	0,048	0,078
-588,152	9,932	-0,081	0,045
-587,138	-156,293	0,168	0,008
-586,123	800,000	-0,042	-0,098
-585,109	-83,398	-0,162	-0,038
-584,094	800,000	-0,036	0,085
-583,079	14,995	0,035	0,020
-582,065	537,393	-0,025	0,044
-581,050	-200,000	-0,022	-0,107
-580,036	-41,940	0,096	0,036
-579,021	-142,406	-0,067	0,005
-578,006	-200,000	0,018	-0,082
-576,992	800,000	-0,054	-0,143
-575,977	-200,000	0,003	-0,070
-574,963	-9,669	-0,073	0,036
-573,948	258,365	-0,067	0,085
-572,934	126,249	0,022	0,020
-571,919	142,788	-0,121	-0,117
-570,904	248,487	0,001	-0,001
-569,890	761,187	-0,066	-0,131
-568,875	516,482	0,025	0,043
-567,861	665,638	-0,059	-0,113
-566,846	-200,000	0,001	-0,057
-565,831	265,465	-0,038	0,048
-564,817	-200,000	0,002	-0,149
-563,802	206,766	0,037	-0,042
-562,788	800,000	0,056	-0,136
-561,773	532,019	0,029	0,050
-560,758	-26,585	0,044	0,019
-559,744	-166,151	0,118	0,004
-558,729	-200,000	-0,003	0,028
-557,715	3,726	0,018	-0,009
-556,700	-200,000	-0,012	-0,053
-555,685	419,341	-0,025	0,039
-554,671	-66,051	0,049	0,014
-553,656	-200,000	-0,002	-0,026
-552,642	-21,608	0,109	-0,048
-551,627	-69,172	-0,060	0,017
-550,612	590,217	0,050	0,090
-549,598	87,177	-0,130	-0,105
-548,583	671,618	-0,041	-0,078
-547,569	128,820	0,008	0,007
-546,554	800,000	0,011	-0,031
-545,539	70,421	-0,055	0,041
-544,525	-41,488	-0,059	-0,022
-543,510	800,000	-0,043	0,113
-542,496	-200,000	0,003	0,102
-541,481	159,500	-0,093	-0,095
-540,466	-200,000	-0,011	0,048
-539,452	391,813	0,099	0,151
-538,437	162,962	0,060	-0,062
-537,423	-91,782	-0,087	0,018
-536,408	800,000	-0,013	0,034
-535,393	-109,695	-0,016	-0,002
-534,379	-200,000	0,006	0,041
-533,364	293,650	0,087	-0,116
-532,350	-156,465	-0,104	0,005
-531,335	782,764	0,051	0,103
-530,321	-63,241	0,128	-0,038
-529,306	-11,972	-0,067	0,032
-528,291	387,893	-0,028	0,043
-527,277	-67,390	-0,089	0,025
-526,262	128,923	0,035	-0,033
-525,248	42,671	0,039	0,026
-524,233	40,002	0,082	0,053
-523,218	254,795	0,071	0,088
-522,204	-73,983	-0,150	-0,039
-521,189	247,192	0,048	-0,059
-520,175	-30,706	-0,080	0,033
-519,160	-200,000	-0,000	-0,037
-518,145	-182,894	0,075	-0,001
-517,131	-38,723	0,102	-0,039
-516,116	-200,000	-0,010	0,054
-515,102	800,000	-0,051	-0,151
-514,087	0,640	0,035	0,018
-513,072	429,526	-0,014	-0,021
-512,058	-200,000	0,012	-0,118
-511,043	205,308	0,043	-0,049
-510,029	800,000	-0,026	0,066
-509,014	460,799	0,062	0,101
-507,999	337,549	0,026	0,037
-506,985	-103,044	-0,154	0,026
-505,970	341,466	-0,003	-0,004
-504,956	-200,000	0,004	-0,265
-503,941	52,856	0,116	0,081
-502,926	138,626	-0,117	0,112
-501,912	-200,000	0,019	-0,085
-500,897	800,000	0,008	-0,021
-499,883	-51,418	-0,083	-0,028
-498,868	-61,830	-0,055	0,017
-497,853	-168,320	0,066	-0,002
-496,839	508,797	0,048	0,082
-495,824	-27,264	0,134	0,056
-494,810	139,055	-0,064	-0,061
-493,795	-103,199	-0,063	0,011
-492,781	-200,000	0,001	-0,090
-491,766	66,926	-0,227	-0,168
-490,751	-48,083	0,074	-0,026
-489,737	-118,257	0,162	-0,021
-488,722	-200,000	0,030	-0,101
-487,708	-58,880	-0,203	0,064
-486,693	-84,368	0,111	0,025
-485,678	-10,119	-0,119	-0,057
-484,664	-167,170	-0,063	-0,002
-483,649	21,182	0,076	-0,045
-482,635	15,199	-0,061	0,035
-481,620	-29,637	0,097	0,040
-480,605	216,136	0,051	0,059
-479,591	59,791	0,082	-0,059
-478,576	134,177	-0,057	-0,054
-477,562	134,546	-0,099	-0,093
-476,547	148,275	-0,095	-0,094
-475,532	-200,000	-0,027	-0,110
-474,518	-200,000	-0,004	0,075
-473,503	90,092	0,015	-0,012
-472,489	307,960	0,034	0,046
-471,474	117,435	0,035	-0,031
-470,459	-200,000	0,022	-0,079
-469,445	-44,147	-0,056	-0,020
-468,430	-200,000	-0,024	-0,130
-467,416	-52,929	0,105	-0,035
-466,401	-200,000	-0,009	0,043
-465,386	-200,000	-0,000	0,034
-464,372	19,507	-0,101	-0,059
-463,357	-200,000	0,007	0,175
-462,343	592,182	0,034	-0,061
-461,328	-74,674	0,103	-0,027
-460,313	-200,000	0,014	-0,106
-459,299	-200,000	0,000	-0,057
-458,284	800,000	0,041	0,101
-457,270	800,000	-0,051	0,111
-456,255	247,200	0,022	-0,027
-455,241	41,551	-0,044	0,029
-454,226	800,000	-0,009	0,024
-453,211	111,555	-0,049	-0,043
-452,197	205,695	0,068	0,077
-451,182	-173,720	0,127	-0,003
-450,168	43,748	-0,097	0,065
-449,153	-29,695	0,047	0,019
-448,138	-13,364	0,100	-0,047
-447,124	376,245	-0,023	0,034
-446,109	-95,520	0,132	0,026
-445,095	-18,454	-0,061	0,028
-444,080	800,000	0,053	0,155
-443,065	-64,882	0,123	-0,036
-442,051	-109,455	-0,162	-0,025
-441,036	602,760	0,037	-0,067
-440,022	-97,546	-0,106	-0,020
-439,007	-200,000	0,008	-0,038
-437,992	800,000	0,024	0,052
-436,978	385,392	0,043	-0,065
-435,963	327,271	0,063	-0,088
-434,949	740,669	-0,053	-0,103
-433,934	216,840	0,088	-0,101
-432,919	593,237	0,033	-0,060
-431,905	-49,576	0,152	0,052
-430,890	800,000	-0,011	-0,034
-429,876	53,189	-0,098	0,068
-428,861	348,060	0,042	0,060
-427,846	-36,653	0,044	-0,017
-426,832	-2,507	-0,055	-0,028
-425,817	-200,000	-0,010	-0,035
-424,803	84,069	0,037	-0,029
-423,788	-200,000	-0,032	0,148
-422,773	-200,000	-0,053	0,176
-421,759	305,774	0,046	0,062
-420,744	-133,018	0,094	0,009
-419,730	-144,752	-0,069	-0,005
-418,715	-27,904	-0,059	-0,025
-417,701	-200,000	0,003	-0,122
-416,686	-200,000	0,049	0,163
-415,671	211,492	0,092	0,105
-414,657	-200,000	0,001	-0,020
-413,642	-200,000	-0,010	-0,053
-412,628	-101,839	-0,042	-0,007
-411,613	-200,000	-0,008	-0,124
-410,598	19,652	0,076	-0,044
-409,584	800,000	-0,027	0,057
-408,569	-200,000	0,015	0,181
-407,555	343,420	0,057	0,081
-406,540	-98,299	-0,101	0,019
-405,525	261,675	-0,058	0,073
-404,511	-113,470	-0,025	0,003
-403,496	-106,479	0,061	0,010
-402,482	-15,551	0,053	-0,024
-401,467	-200,000	-0,013	0,128
-400,452	-200,000	0,007	0,058
-399,438	-132,948	0,086	0,008
-398,423	-195,575	-0,123	-0,001
-397,409	-200,000	-0,039	0,000
-396,394	-200,000	-0,019	0,125
-395,379	-135,599	-0,033	0,003
-394,365	-200,000	0,025	0,104
-393,350	-200,000	-0,014	0,127
-392,336	201,705	0,133	0,149
-391,321	310,558	0,041	0,055
-390,306	-4,617	0,021	0,011
-389,292	-14,100	0,114	0,053
-388,277	-200,000	0,005	-0,075
-387,263	-121,156	0,107	-0,013
-386,248	-51,972	-0,018	0,006
-385,233	36,493	0,017	-0,011
-384,219	-200,000	0,004	0,067
-383,204	20,485	-0,039	-0,023
-382,190	292,400	0,090	-0,120
-381,175	-90,434	0,103	-0,021
-380,160	149,061	0,022	-0,021
-379,146	-200,000	0,002	-0,026
-378,131	-83,013	-0,082	0,019
-377,117	-25,923	0,073	0,031
-376,102	193,368	-0,083	-0,091
-375,088	130,018	0,050	-0,047
-374,073	195,564	0,047	-0,052
-373,058	-43,832	-0,040	-0,014
-372,044	-200,000	-0,010	0,041
-371,029	-200,000	0,054	0,224
-370,015	800,000	0,024	0,057
-369,000	-200,000	0,030	-0,114
-367,985	18,845	-0,079	0,046
-366,971	800,000	0,029	0,077
-365,956	125,494	-0,059	0,054
-364,942	-200,000	0,002	-0,011
-363,927	800,000	0,030	-0,061
-362,912	348,724	-0,032	0,047
-361,898	22,778	-0,047	-0,028
-360,883	-26,254	-0,126	-0,053
-359,869	-200,000	0,008	0,064
-358,854	-200,000	0,000	-0,006
-357,839	-49,084	0,019	-0,007
-356,825	-200,000	0,018	0,113
-355,810	-200,000	-0,003	-0,026
-354,796	40,799	-0,120	-0,078
-353,781	-56,327	-0,137	-0,044
-352,766	-200,000	-0,015	0,070
-351,752	-200,000	0,022	0,184
-350,737	-55,486	0,112	0,036
-349,723	31,621	0,020	0,012
-348,708	145,584	-0,061	0,059
-347,693	206,012	0,061	0,069
-346,679	-105,430	0,110	-0,018
-345,664	-200,000	0,037	0,120
-344,650	28,781	-0,126	-0,077
-343,635	134,928	-0,072	0,068
-342,620	113,400	0,120	0,105
-341,606	-135,954	-0,126	-0,011
-340,591	800,000	0,050	-0,146
-339,577	132,748	-0,007	-0,007
-338,562	800,000	-0,019	-0,044
-337,548	-200,000	-0,037	0,234
-336,533	-31,634	0,059	-0,024
-335,518	26,089	0,075	-0,045
-334,504	22,254	-0,086	0,051
-333,489	-7,383	0,020	0,010
-332,475	-71,820	-0,140	0,037
-331,460	-200,000	0,030	-0,118
-330,445	-200,000	0,018	0,060
-329,431	-16,778	-0,060	-0,027
-328,416	257,521	0,122	0,152
-327,402	-200,000	-0,001	0,031
-326,387	-137,421	-0,150	-0,012
-325,372	279,606	-0,034	-0,044
-324,358	-200,000	-0,022	0,107
-323,343	-200,000	-0,025	-0,091
-322,329	-85,409	-0,041	0,009
-321,314	530,353	0,069	-0,119
-320,299	800,000	0,014	0,040
-319,285	-56,735	-0,014	0,005
-318,270	800,000	0,039	-0,101
-317,256	438,704	0,050	0,080
-316,241	392,851	-0,066	-0,100
-315,226	-52,373	0,084	-0,028
-314,212	-14,193	-0,072	-0,033
-313,197	800,000	0,069	-0,161
-312,183	-34,148	-0,075	0,030
-311,168	-151,999	0,052	0,003
-310,153	180,785	-0,050	-0,053
-309,139	-14,086	0,119	0,055
-308,124	-106,134	0,086	-0,014
-307,110	93,526	0,026	-0,021
-306,095	-49,950	0,103	0,035
-305,080	-200,000	-0,035	-0,198
-304,066	203,221	0,061	-0,068
-303,051	160,127	-0,031	-0,031
-302,037	400,927	0,065	-0,099
-301,022	141,208	-0,063	0,061
-300,008	190,304	0,015	0,016
-298,993	415,543	0,026	-0,040
-297,978	-200,000	0,017	-0,168
-296,964	-164,284	0,087	0,003
-295,949	-111,022	-0,094	-0,014
-294,935	520,574	-0,060	0,103
-293,920	209,092	0,055	-0,062
-292,905	-200,000	-0,010	0,166
-291,891	-41,630	0,052	0,019
-290,876	306,925	-0,056	-0,075
-289,862	619,485	-0,015	0,027
-288,847	387,427	0,037	-0,055
-287,832	141,459	0,074	-0,071
-286,818	120,308	0,004	0,003
-285,803	751,026	-0,011	0,022
-284,789	9,898	0,170	0,093
-283,774	-22,971	0,076	0,033
-282,759	-200,000	0,022	0,155
-281,745	-200,000	-0,026	0,098
-280,730	-74,880	-0,131	0,034
-279,716	-173,537	-0,111	-0,002
-278,701	146,484	0,032	-0,031
-277,686	162,097	0,074	0,075
-276,672	125,502	0,122	-0,111
-275,657	-200,000	-0,009	-0,033
-274,643	4,907	-0,041	-0,022
-273,628	800,000	0,033	-0,086
-272,613	211,461	0,019	0,022
-271,599	61,744	0,091	0,065
-270,584	-200,000	0,006	0,095
-269,570	-200,000	-0,013	0,093
-268,555	800,000	-0,052	-0,138
-267,540	-200,000	0,017	0,076
-266,526	34,230	-0,114	-0,071
-265,511	-21,231	0,076	0,033
-264,497	-200,000	-0,039	0,125
-263,482	-20,444	0,096	-0,042
-262,467	-165,258	-0,135	0,004
-261,453	800,000	0,028	0,086
-260,438	-200,000	0,000	-0,060
-259,424	428,133	0,067	-0,104
-258,409	-200,000	-0,008	0,065
-257,395	-146,672	0,035	-0,002
-256,380	26,928	-0,134	-0,081
-255,365	166,434	0,054	0,056
-254,351	446,459	-0,016	0,025
-253,336	43,177	-0,043	-0,028
-252,322	-200,000	-0,029	-0,171
-251,307	-200,000	0,004	-0,090
-250,292	136,018	0,039	0,037
-249,278	563,492	-0,037	0,066
-248,263	-39,731	0,101	0,038
-247,249	111,631	0,069	-0,060
-246,234	-92,241	0,060	-0,012
-245,219	-84,333	-0,112	-0,025
-244,205	800,000	-0,080	-0,199
-243,190	553,683	0,080	-0,139
-242,176	-200,000	0,006	0,038
-241,161	131,029	0,045	0,042
-240,146	-200,000	0,002	-0,021
-239,132	35,152	-0,100	-0,063
-238,117	-200,000	-0,030	-0,099
-237,103	174,695	-0,028	0,029
-236,088	-200,000	0,004	-0,049
-235,073	161,457	-0,062	0,063
-234,059	-62,488	0,047	-0,014
-233,044	28,319	-0,162	0,098
-232,030	-200,000	0,002	0,017
-231,015	-11,443	0,024	0,011
-230,000	-6,823	0,060	-0,029
-228,986	-200,000	-0,013	-0,058
-227,971	-102,213	-0,016	0,003
-226,957	597,019	0,038	0,069
-225,942	800,000	-0,044	0,123
-224,927	374,137	-0,089	-0,131
-223,913	-200,000	0,000	0,054
-222,898	-50,489	0,069	-0,023
-221,884	607,110	-0,026	0,048
-220,869	365,666	0,041	-0,060
-219,855	193,687	0,082	-0,090
-218,840	-65,173	0,055	-0,016
-217,825	-174,595	-0,032	-0,001
-216,811	169,752	-0,074	-0,077
-215,796	174,679	-0,078	-0,081
-214,782	800,000	0,030	0,063
-213,767	39,010	-0,074	-0,048
-212,752	800,000	0,046	0,100
-211,738	493,393	-0,056	0,093
-210,723	-200,000	0,004	0,146
-209,709	41,656	-0,116	-0,076
-208,694	-200,000	-0,019	-0,176
-207,679	-200,000	-0,005	-0,040
-206,665	271,323	0,044	-0,056
-205,650	-19,778	0,017	-0,008
-204,636	54,813	0,026	0,018
-203,621	212,076	0,061	0,070
-202,606	-64,261	-0,055	-0,016
-201,592	94,903	0,100	-0,082
-200,577	-165,121	-0,104	0,003
-199,563	188,326	-0,044	0,047
-198,548	308,594	0,043	0,058
-197,533	78,996	0,058	-0,045
-196,519	292,842	-0,042	0,056
-195,504	-200,000	0,013	0,052
-194,490	148,407	0,049	-0,048
-193,475	712,537	-0,041	-0,078
-192,460	-113,373	-0,033	0,005
-191,446	231,352	0,100	-0,118
-190,431	-117,324	0,102	0,013
-189,417	-31,614	-0,072	0,029
-188,402	659,965	0,020	0,037
-187,387	-200,000	-0,002	-0,067
-186,373	-200,000	-0,007	-0,058
-185,358	800,000	0,028	-0,090
-184,344	-80,617	0,109	0,026
-183,329	-200,000	0,022	0,121
-182,315	-200,000	0,011	-0,050
-181,300	98,866	-0,063	0,052
-180,285	106,581	0,056	-0,047
-179,271	259,974	0,027	-0,033
-178,256	104,801	-0,057	0,049
-177,242	-30,853	-0,099	0,040
-176,227	800,000	0,047	0,146
-175,212	327,338	-0,148	0,205
-174,198	62,795	-0,044	0,031
-173,183	213,325	-0,143	0,162
-172,169	464,888	-0,044	-0,072
-171,154	-102,900	0,124	-0,021
-170,139	74,719	-0,024	0,018
-169,125	111,299	0,033	-0,029
-168,110	131,318	0,039	0,036
-167,096	-200,000	0,048	-0,174
-166,081	-88,067	-0,121	-0,026
-165,066	703,227	0,027	-0,052
-164,052	-54,252	0,102	-0,033
-163,037	-81,972	0,188	0,044
-162,023	176,179	0,026	0,027
-161,008	257,180	-0,020	-0,025
-159,993	125,698	-0,069	0,062
-158,979	-200,000	-0,001	-0,107
-157,964	-56,103	-0,098	0,031
-156,950	12,727	-0,108	0,060
-155,935	-79,566	-0,104	-0,025
-154,920	68,698	0,083	-0,061
-153,906	132,785	0,092	-0,085
-152,891	-60,197	0,043	0,013
-151,877	87,729	-0,051	0,041
-150,862	-200,000	0,002	-0,062
-149,847	-26,126	0,104	-0,044
-148,833	8,738	0,083	-0,045
-147,818	87,246	0,042	0,033
-146,804	-200,000	0,015	0,055
-145,789	-200,000	-0,019	0,128
-144,775	72,838	-0,046	0,034
-143,760	800,000	-0,073	-0,161
-142,745	-87,684	-0,038	0,008
-141,731	-129,789	0,139	-0,014
-140,716	26,560	-0,084	-0,050
-139,702	800,000	0,026	0,062
-138,687	67,586	-0,079	0,058
-137,672	113,073	0,090	-0,078
-136,658	81,515	0,104	-0,080
-135,643	-127,427	0,107	0,011
-134,629	60,095	-0,056	-0,040
-133,614	206,267	0,051	-0,057
-132,599	-99,339	-0,087	-0,016
-131,585	236,749	0,039	0,047
-130,570	-123,049	-0,053	0,006
-129,556	149,649	-0,076	0,074
-128,541	-73,141	-0,076	-0,020
-127,526	344,123	-0,055	0,077
-126,512	-200,000	-0,024	-0,088
-125,497	-14,623	0,109	-0,050
-124,483	800,000	-0,013	-0,039
-123,468	35,217	-0,032	-0,020
-122,453	67,536	-0,195	-0,143
-121,439	125,368	0,078	-0,071
-120,424	429,371	0,116	-0,180
-119,410	105,459	-0,061	-0,052
