DTS Sentinel unit serial number:	SN410029Multiplexer serial number:	ORYXHardware model number:	OX2-SRSoftware version number:	ORYX F/W v4,00 Oryx Data Collector v3.7.2.0data status	okinstallation	B6 Nyhavnadifferential loss correction	single-endedforward channel	channel 2reverse channel	N/Adate	2023/12/09time	07:40:08forward acquisition time	300,00reverse acquisition time	0,00gamma	499,1914k internal	0,3139k external	0,3139temperature offset calibration	1,0000default loss term (dB/km)	0,3820temperature slope calibration	1,0000multiplexer offset coefficient	1,0000multiplexer slope coefficient	1,0000fibre end	0,00T internal ref (°C)	18,56T ext. ref 1 (°C)	1,92T ext. ref 2 (°C)	1,91length (m)	temperature (°C)	Stokes	anti-Stokes-744,400	90,129	0,082	-0,068
-743,385	-109,313	-0,288	-0,045
-742,371	-29,249	0,033	0,014
-741,356	97,875	-0,250	0,213
-740,342	125,214	0,086	-0,080
-739,327	-72,989	-0,269	0,073
-738,312	-1,888	0,070	-0,036
-737,298	-78,432	-0,324	0,082
-736,283	-127,207	0,133	-0,014
-735,269	13,738	-0,141	0,081
-734,254	49,653	0,163	0,114
-733,239	-32,802	-0,511	-0,210
-732,225	194,755	0,034	-0,038
-731,210	12,373	0,155	0,088
-730,196	-51,000	0,057	-0,020
-729,181	800,000	-0,054	-0,156
-728,167	-95,779	0,053	-0,010
-727,152	166,854	-0,050	-0,053
-726,137	222,670	-0,124	-0,149
-725,123	800,000	0,006	0,020
-724,108	-35,448	0,145	-0,058
-723,094	-200,000	0,013	-0,104
-722,079	-75,736	-0,179	-0,047
-721,064	800,000	0,055	-0,122
-720,050	800,000	-0,060	-0,134
-719,035	-97,501	-0,077	0,015
-718,021	-200,000	-0,029	-0,099
-717,006	105,490	-0,176	-0,154
-715,991	-200,000	-0,011	-0,168
-714,977	109,152	-0,097	-0,086
-713,962	-27,928	0,040	-0,017
-712,948	362,577	-0,057	-0,086
-711,933	-145,509	-0,144	-0,009
-710,918	78,366	-0,041	0,032
-709,904	-144,811	0,180	-0,012
-708,889	-7,730	0,051	-0,025
-707,875	534,559	-0,047	0,082
-706,860	-200,000	-0,008	0,074
-705,845	-14,230	0,094	-0,045
-704,831	-200,000	0,028	-0,099
-703,816	-86,243	0,093	0,021
-702,802	-79,874	-0,069	-0,017
-701,787	-200,000	0,028	-0,143
-700,772	-116,517	-0,043	0,006
-699,758	42,711	0,080	0,054
-698,743	-81,899	0,129	-0,031
-697,729	36,413	0,169	-0,110
-696,714	800,000	0,034	-0,108
-695,699	-35,350	-0,152	0,061
-694,685	-112,903	-0,106	0,015
-693,670	123,965	0,033	-0,031
-692,656	-22,729	-0,084	-0,038
-691,641	403,978	0,031	-0,049
-690,627	800,000	-0,054	0,114
-689,612	400,631	0,095	-0,148
-688,597	-30,276	-0,042	0,017
-687,583	-46,339	-0,125	-0,045
-686,568	387,095	-0,097	-0,148
-685,554	-200,000	0,006	-0,128
-684,539	93,361	-0,035	-0,029
-683,524	-200,000	-0,011	-0,042
-682,510	-190,867	-0,071	0,001
-681,495	37,590	0,019	-0,012
-680,481	208,664	-0,069	-0,080
-679,466	380,141	-0,081	-0,124
-678,451	-200,000	-0,001	-0,015
-677,437	800,000	0,034	0,078
-676,422	-200,000	0,028	0,096
-675,408	-200,000	0,014	0,074
-674,393	-185,030	-0,029	-0,000
-673,378	-8,010	0,041	-0,020
-672,364	195,593	-0,053	-0,059
-671,349	-58,407	-0,052	0,017
-670,335	788,461	0,067	0,137
-669,320	-200,000	0,006	0,086
-668,305	-1,308	0,031	-0,016
-667,291	694,774	-0,048	0,094
-666,276	51,764	-0,038	-0,027
-665,262	-36,849	-0,108	0,043
-664,247	-200,000	0,020	-0,091
-663,232	7,999	-0,056	-0,031
-662,218	-200,000	0,017	0,096
-661,203	281,758	0,061	0,081
-660,189	-14,687	0,041	0,019
-659,174	-115,241	-0,075	0,010
-658,159	-200,000	-0,008	0,048
-657,145	-31,801	0,032	-0,013
-656,130	197,848	0,031	0,035
-655,116	-70,423	-0,046	0,013
-654,101	-26,869	0,082	-0,035
-653,086	800,000	-0,024	0,058
-652,072	-130,854	-0,116	-0,011
-651,057	53,905	-0,119	-0,084
-650,043	174,249	0,077	0,083
-649,028	51,698	-0,103	-0,072
-648,014	21,617	0,069	0,042
-646,999	103,338	-0,051	-0,044
-645,984	-200,000	0,033	0,130
-644,970	800,000	-0,022	0,048
-643,955	155,462	-0,099	-0,101
-642,941	-96,872	-0,068	-0,013
-641,926	-200,000	-0,004	0,113
-640,911	800,000	0,010	-0,022
-639,897	242,117	0,066	-0,082
-638,882	-199,213	-0,094	-0,000
-637,868	476,984	0,023	0,038
-636,853	800,000	-0,103	-0,216
-635,838	-134,237	-0,170	-0,015
-634,824	43,068	0,068	0,046
-633,809	-200,000	-0,004	-0,055
-632,795	-125,285	-0,038	0,004
-631,780	275,945	-0,003	0,004
-630,765	204,981	-0,006	0,007
-629,751	476,530	0,056	-0,094
-628,736	800,000	-0,020	-0,061
-627,722	800,000	-0,002	-0,006
-626,707	641,981	-0,049	-0,092
-625,692	322,762	0,094	-0,132
-624,678	-131,510	0,060	-0,006
-623,663	-124,809	-0,094	0,011
-622,649	800,000	-0,025	-0,056
-621,634	-200,000	-0,006	-0,074
-620,619	-200,000	0,006	0,065
-619,605	138,723	-0,132	0,128
-618,590	-200,000	0,054	0,211
-617,576	-200,000	-0,005	-0,032
-616,561	287,116	0,095	-0,127
-615,546	281,665	-0,042	-0,056
-614,532	800,000	-0,022	-0,045
-613,517	-95,443	0,036	-0,007
-612,503	800,000	-0,057	0,120
-611,488	379,259	0,044	0,067
-610,474	88,890	0,055	0,046
-609,459	-97,490	-0,148	-0,028
-608,444	28,159	0,235	-0,146
-607,430	-200,000	0,036	0,164
-606,415	-47,562	-0,078	-0,028
-605,401	-200,000	-0,002	0,035
-604,386	158,392	0,083	0,085
-603,371	136,376	-0,010	-0,010
-602,357	-91,250	-0,051	0,011
-601,342	212,512	-0,065	-0,076
-600,328	-28,670	0,060	0,025
-599,313	723,523	-0,095	-0,187
-598,298	-86,682	-0,082	-0,018
-597,284	800,000	0,015	0,038
-596,269	577,248	0,034	0,062
-595,255	-200,000	0,025	-0,142
-594,240	21,934	0,102	-0,061
-593,225	229,062	0,056	0,067
-592,211	-93,772	0,056	0,011
-591,196	-200,000	0,011	0,045
-590,182	800,000	-0,025	0,055
-589,167	-127,176	0,073	-0,008
-588,152	-105,465	-0,158	-0,026
-587,138	192,832	-0,028	0,031
-586,123	149,267	-0,054	-0,054
-585,109	800,000	-0,056	-0,138
-584,094	-200,000	0,004	-0,065
-583,079	-200,000	-0,024	0,147
-582,065	-83,962	0,136	0,032
-581,050	-67,778	-0,026	-0,007
-580,036	-200,000	-0,051	0,170
-579,021	-96,327	-0,047	-0,009
-578,006	158,126	0,032	0,033
-576,992	-38,561	-0,077	0,030
-575,977	800,000	0,039	-0,114
-574,963	800,000	0,053	0,169
-573,948	234,994	-0,040	0,049
-572,934	-200,000	0,015	0,088
-571,919	-2,376	-0,063	0,032
-570,904	-70,467	0,057	0,016
-569,890	-64,591	-0,087	-0,026
-568,875	258,834	0,036	0,046
-567,861	800,000	-0,026	-0,056
-566,846	-40,872	-0,102	0,039
-565,831	800,000	0,028	-0,060
-564,817	-200,000	-0,001	-0,145
-563,802	-52,736	-0,064	-0,022
-562,788	6,691	-0,019	0,010
-561,773	173,118	0,066	-0,071
-560,758	216,716	0,023	-0,027
-559,744	3,435	-0,060	-0,032
-558,729	800,000	0,007	-0,019
-557,715	-112,527	-0,132	-0,019
-556,700	116,527	0,085	0,077
-555,685	145,884	0,028	0,028
-554,671	800,000	0,026	-0,069
-553,656	-117,930	0,086	-0,011
-552,642	156,774	0,022	0,022
-551,627	-75,253	-0,121	0,032
-550,612	239,395	-0,064	-0,079
-549,598	-175,849	-0,047	-0,001
-548,583	-200,000	-0,014	0,106
-547,569	244,390	-0,007	0,008
-546,554	-200,000	0,022	0,106
-545,539	-85,409	-0,101	0,023
-544,525	-120,380	0,075	0,009
-543,510	-200,000	-0,001	-0,022
-542,496	-150,245	0,066	-0,004
-541,481	-183,824	-0,065	-0,001
-540,466	-119,365	-0,070	-0,009
-539,452	-73,628	-0,116	0,031
-538,437	-84,913	0,077	0,018
-537,423	-200,000	0,019	-0,066
-536,408	800,000	-0,028	0,088
-535,393	800,000	-0,039	-0,084
-534,379	78,033	0,047	0,037
-533,364	-200,000	-0,023	-0,119
-532,350	727,442	-0,009	0,018
-531,335	799,861	0,059	-0,120
-530,321	-175,932	0,102	-0,002
-529,306	-80,860	0,042	0,010
-528,291	-33,997	-0,188	-0,076
-527,277	234,644	0,046	0,056
-526,262	152,598	-0,028	-0,028
-525,248	188,245	-0,146	-0,161
-524,233	312,197	0,019	-0,026
-523,218	224,796	-0,094	0,112
-522,204	-200,000	0,000	0,035
-521,189	-200,000	-0,014	0,046
-520,175	-200,000	-0,009	-0,035
-519,160	800,000	-0,045	-0,122
-518,145	-72,367	0,105	0,028
-517,131	-200,000	0,022	-0,130
-516,116	-200,000	0,004	-0,073
-515,102	205,185	-0,136	-0,155
-514,087	-200,000	-0,016	-0,234
-513,072	800,000	-0,002	0,006
-512,058	-26,973	0,031	-0,013
-511,043	-200,000	-0,007	0,042
-510,029	-200,000	0,011	-0,112
-509,014	800,000	0,032	-0,067
-507,999	373,735	-0,029	0,043
-506,985	223,888	0,105	-0,125
-505,970	225,706	0,051	-0,061
-504,956	-50,755	-0,185	-0,064
-503,941	156,070	-0,026	-0,026
-502,926	-41,601	0,213	0,080
-501,912	9,722	0,081	-0,045
-500,897	3,626	0,114	-0,061
-499,883	69,019	-0,105	-0,079
-498,868	-200,000	0,014	-0,100
-497,853	-18,040	-0,103	0,047
-496,839	-16,098	-0,044	-0,021
-495,824	-149,657	-0,061	-0,003
-494,810	-47,154	-0,140	-0,050
-493,795	-200,000	0,007	0,038
-492,781	163,027	0,112	0,116
-491,766	578,675	-0,060	-0,109
-490,751	-200,000	0,032	-0,120
-489,737	-1,709	0,118	-0,061
-488,722	-200,000	-0,009	-0,041
-487,708	800,000	-0,077	0,221
-486,693	70,861	-0,051	0,039
-485,678	-7,197	-0,053	0,026
-484,664	211,042	-0,084	0,097
-483,649	-62,705	-0,074	0,022
-482,635	-56,683	0,104	0,034
-481,620	392,238	0,021	-0,032
-480,605	102,206	0,057	-0,049
-479,591	-16,299	0,040	-0,018
-478,576	800,000	0,012	0,028
-477,562	-200,000	-0,001	-0,006
-476,547	382,651	-0,106	-0,161
-475,532	-74,887	0,042	0,011
-474,518	65,673	-0,030	-0,022
-473,503	-136,831	0,071	-0,006
-472,489	-200,000	0,001	0,116
-471,474	-10,231	-0,101	-0,049
-470,459	-146,315	-0,129	0,008
-469,445	255,679	-0,043	-0,054
-468,430	-200,000	-0,003	0,070
-467,416	-24,401	-0,064	0,028
-466,401	-43,992	-0,102	-0,037
-465,386	-85,914	0,107	-0,024
-464,372	-166,951	-0,043	0,001
-463,357	-104,102	-0,183	0,031
-462,343	-200,000	0,005	0,062
-461,328	-200,000	0,011	-0,068
-460,313	800,000	0,032	-0,097
-459,299	-49,650	0,075	0,026
-458,284	-75,802	-0,049	0,013
-457,270	232,955	-0,031	-0,038
-456,255	101,013	-0,180	-0,154
-455,241	-0,880	0,097	-0,050
-454,226	49,452	-0,046	-0,032
-453,211	136,660	-0,055	-0,053
-452,197	800,000	0,032	-0,067
-451,182	210,794	-0,074	0,086
-450,168	567,299	-0,058	0,104
-449,153	-69,816	0,128	-0,036
-448,138	486,324	-0,021	-0,035
-447,124	-88,339	-0,080	0,017
-446,109	57,433	0,066	0,047
-445,095	-25,116	0,076	0,033
-444,080	-76,174	0,102	-0,026
-443,065	-200,000	0,017	0,098
-442,051	128,970	0,025	0,024
-441,036	33,892	-0,045	-0,029
-440,022	281,028	0,057	-0,076
-439,007	618,681	0,015	-0,029
-437,992	-10,579	0,056	-0,027
-436,978	571,192	0,029	0,052
-435,963	-42,375	0,127	0,047
-434,949	9,540	0,062	0,034
-433,934	-200,000	0,015	-0,080
-432,919	-48,154	-0,086	0,030
-431,905	-200,000	0,024	-0,082
-430,890	-157,146	0,012	0,001
-429,876	-200,000	0,010	0,056
-428,861	-4,343	0,081	0,041
-427,846	99,142	0,010	-0,009
-426,832	534,717	0,071	0,123
-425,817	218,431	-0,088	-0,103
-424,803	232,664	0,085	0,102
-423,788	508,551	0,035	-0,059
-422,773	47,477	0,049	-0,033
-421,759	421,369	0,043	0,068
-420,744	-42,729	0,144	0,053
-419,730	800,000	-0,006	0,013
-418,715	-200,000	-0,018	-0,111
-417,701	-200,000	0,009	-0,081
-416,686	800,000	0,011	-0,024
-415,671	-121,458	0,074	-0,009
-414,657	104,812	0,069	-0,059
-413,642	-61,526	0,078	-0,024
-412,628	-56,978	0,039	-0,013
-411,613	-36,682	0,108	0,042
-410,598	-130,488	-0,089	0,009
-409,584	-28,760	0,052	0,022
-408,569	-144,807	0,144	0,009
-407,555	9,764	-0,060	-0,033
-406,540	1,690	0,046	-0,024
-405,525	17,040	-0,081	0,047
-404,511	-57,857	-0,047	0,015
-403,496	178,278	0,036	-0,039
-402,482	55,444	0,050	-0,035
-401,467	-200,000	0,014	-0,054
-400,452	-196,095	-0,023	-0,000
-399,438	46,993	0,110	-0,075
-398,423	-59,498	-0,068	-0,021
-397,409	10,001	-0,100	0,055
-396,394	158,690	0,068	-0,070
-395,379	-120,990	0,078	0,009
-394,365	292,137	0,054	-0,072
-393,350	-69,460	0,047	-0,013
-392,336	66,138	0,099	0,073
-391,321	106,249	-0,131	0,114
-390,306	800,000	-0,043	-0,094
-389,292	800,000	0,050	-0,132
-388,277	115,517	0,014	0,012
-387,263	-108,774	0,149	-0,023
-386,248	800,000	-0,021	0,049
-385,233	196,563	-0,104	0,116
-384,219	-200,000	0,035	-0,159
-383,204	55,413	-0,091	-0,064
-382,190	-146,466	-0,050	-0,003
-381,175	10,747	-0,087	-0,048
-380,160	98,193	-0,024	0,021
-379,146	-200,000	0,009	0,040
-378,131	-200,000	0,002	-0,037
-377,117	-200,000	0,040	-0,183
-376,102	175,675	-0,059	-0,062
-375,088	0,164	0,065	-0,034
-374,073	94,980	0,011	0,009
-373,058	-11,535	-0,083	-0,040
-372,044	65,436	-0,066	0,049
-371,029	-28,817	0,094	0,039
-370,015	-32,807	-0,125	0,050
-369,000	229,211	0,024	-0,029
-367,985	800,000	-0,039	0,089
-366,971	-10,275	0,152	-0,073
-365,956	-95,007	0,093	-0,018
-364,942	800,000	-0,020	0,047
-363,927	304,249	0,041	0,056
-362,912	129,120	-0,044	0,041
-361,898	-69,915	0,110	-0,030
-360,883	281,791	0,057	0,075
-359,869	38,737	-0,058	0,038
-358,854	-84,970	-0,037	-0,008
-357,839	-200,000	0,002	-0,017
-356,825	-200,000	-0,005	0,099
-355,810	-200,000	-0,014	0,094
-354,796	43,235	-0,049	0,033
-353,781	-182,620	0,074	0,001
-352,766	800,000	-0,049	0,108
-351,752	800,000	-0,042	-0,088
-350,737	418,447	0,086	0,135
-349,723	496,734	-0,023	0,039
-348,708	-65,626	0,131	-0,038
-347,693	252,567	-0,036	-0,045
-346,679	190,268	-0,018	0,020
-345,664	258,272	-0,036	-0,046
-344,650	249,085	-0,042	-0,053
-343,635	800,000	0,041	-0,119
-342,620	800,000	0,065	0,148
-341,606	573,864	-0,019	0,033
-340,591	-60,516	0,078	0,024
-339,577	-46,398	-0,061	0,022
-338,562	800,000	0,039	0,087
-337,548	-47,671	-0,111	0,039
-336,533	80,328	-0,077	0,061
-335,518	800,000	0,011	-0,030
-334,504	800,000	-0,066	-0,151
-333,489	4,592	0,121	-0,065
-332,475	-200,000	0,023	-0,196
-331,460	105,654	0,036	-0,031
-330,445	-72,115	-0,092	0,025
-329,431	-200,000	0,024	0,125
-328,416	-144,263	-0,178	0,012
-327,402	11,913	0,214	0,120
-326,387	123,996	-0,039	0,036
-325,372	284,281	-0,036	0,048
-324,358	211,422	0,054	-0,062
-323,343	20,706	-0,049	0,029
-322,329	-178,070	-0,119	0,002
-321,314	800,000	-0,043	-0,122
-320,299	-200,000	-0,033	0,171
-319,285	63,090	-0,047	0,034
-318,270	-200,000	-0,021	-0,142
-317,256	800,000	-0,031	-0,075
-316,241	433,518	0,041	0,065
-315,226	-84,852	0,125	0,029
-314,212	153,472	-0,074	0,074
-313,197	-200,000	-0,010	0,069
-312,183	-34,883	0,106	0,042
-311,168	132,833	-0,029	0,027
-310,153	-133,691	0,085	-0,008
-309,139	77,752	0,061	0,047
-308,124	800,000	-0,076	0,154
-307,110	156,261	0,091	-0,092
-306,095	800,000	0,045	0,110
-305,080	210,689	-0,040	0,046
-304,066	90,242	-0,111	0,091
-303,051	45,134	0,048	-0,032
-302,037	-29,648	0,121	0,050
-301,022	-103,402	0,048	-0,008
-300,008	211,437	0,101	0,116
-298,993	-200,000	-0,010	-0,044
-297,978	119,876	0,055	0,050
-296,964	800,000	0,056	-0,146
-295,949	34,899	0,021	0,013
-294,935	-35,827	0,070	-0,027
-293,920	295,409	-0,031	-0,042
-292,905	125,392	0,093	0,086
-291,891	-200,000	0,004	0,025
-290,876	95,831	-0,022	-0,018
-289,862	-200,000	0,083	0,000
-288,847	800,000	-0,034	-0,085
-287,832	800,000	0,012	0,035
-286,818	27,640	-0,109	-0,067
-285,803	173,909	0,071	0,074
-284,789	277,663	-0,004	-0,005
-283,774	800,000	0,041	0,109
-282,759	-3,285	-0,104	0,053
-281,745	291,477	-0,056	0,074
-280,730	-104,705	-0,133	-0,022
-279,716	58,607	0,102	-0,072
-278,701	335,724	0,036	-0,051
-277,686	-149,575	0,111	-0,006
-276,672	-66,221	-0,111	0,032
-275,657	681,875	0,020	0,038
-274,643	147,537	-0,062	0,061
-273,628	-200,000	0,019	-0,064
-272,613	-166,169	-0,061	0,002
-271,599	89,452	-0,051	-0,041
-270,584	636,752	0,081	0,150
-269,570	800,000	-0,029	0,080
-268,555	-200,000	0,024	0,117
-267,540	18,886	-0,064	-0,037
-266,526	-200,000	-0,011	-0,057
-265,511	364,410	0,069	0,101
-264,497	-200,000	-0,015	0,090
-263,482	-200,000	0,008	0,174
-262,467	211,841	0,039	-0,045
-261,453	-118,803	0,124	0,016
-260,438	800,000	0,022	-0,053
-259,424	800,000	-0,040	-0,105
-258,409	800,000	0,019	-0,045
-257,395	-49,672	-0,118	-0,041
-256,380	-177,528	0,075	-0,001
-255,365	800,000	0,005	-0,015
-254,351	324,581	0,040	0,056
-253,336	800,000	0,027	0,055
-252,322	-132,192	-0,149	-0,014
-251,307	356,840	-0,059	-0,086
-250,292	211,235	0,074	0,085
-249,278	12,821	0,067	-0,037
-248,263	-200,000	0,023	0,079
-247,249	376,732	0,050	0,074
-246,234	438,688	-0,098	-0,156
-245,219	10,751	0,033	-0,018
-244,205	800,000	-0,052	-0,137
-243,190	227,010	0,067	0,080
-242,176	-3,574	-0,126	-0,063
-241,161	-14,438	0,059	0,027
-240,146	-160,200	0,078	-0,003
-239,132	136,950	-0,048	-0,045
-238,117	152,919	-0,077	-0,076
-237,103	-200,000	-0,006	-0,114
-236,088	800,000	0,029	0,073
-235,073	53,967	0,121	-0,084
-234,059	-200,000	0,003	0,030
-233,044	800,000	0,054	0,138
-232,030	800,000	0,034	0,104
-231,015	-16,023	0,067	0,031
-230,000	800,000	0,024	0,056
-228,986	-153,772	0,061	0,003
-227,971	26,678	-0,066	-0,040
-226,957	-46,498	0,115	0,041
-225,942	211,685	0,060	0,069
-224,927	-104,145	-0,072	-0,012
-223,913	-200,000	0,009	-0,057
-222,898	80,573	0,033	0,026
-221,884	23,807	0,032	-0,019
-220,869	-200,000	0,009	0,050
-219,855	43,590	0,055	0,036
-218,840	-149,289	0,073	-0,004
-217,825	119,255	-0,072	0,065
-216,811	-200,000	0,010	0,088
-215,796	800,000	0,045	-0,122
-214,782	14,828	-0,143	-0,081
-213,767	-200,000	0,001	0,175
-212,752	800,000	0,009	-0,019
-211,738	271,457	-0,065	0,083
-210,723	-200,000	0,011	0,215
-209,709	21,668	0,032	-0,019
-208,694	478,504	-0,060	-0,099
-207,679	768,182	-0,092	-0,183
-206,665	800,000	0,042	-0,111
-205,650	-59,196	0,138	0,043
-204,636	102,816	0,066	0,056
-203,621	207,427	0,064	-0,072
-202,606	-197,785	0,109	-0,000
-201,592	-8,583	-0,194	-0,094
-200,577	-143,588	-0,124	-0,008
-199,563	-200,000	0,004	-0,045
-198,548	378,415	-0,119	0,178
-197,533	145,974	0,123	0,120
-196,519	800,000	-0,031	0,069
-195,504	-139,185	-0,057	-0,004
-194,490	-200,000	0,023	-0,163
-193,475	33,898	-0,022	0,014
-192,460	218,949	-0,075	0,087
-191,446	-118,049	0,058	-0,007
-190,431	-69,898	0,131	0,036
-189,417	-200,000	0,006	0,111
-188,402	-123,967	-0,032	-0,004
-187,387	-66,968	-0,037	0,010
-186,373	-17,808	-0,063	0,028
-185,358	-200,000	0,018	0,093
-184,344	800,000	-0,030	0,063
-183,329	-200,000	0,003	-0,027
-182,315	-200,000	0,005	-0,053
-181,300	37,301	0,096	0,062
-180,285	800,000	-0,064	-0,161
-179,271	-45,237	-0,123	-0,044
-178,256	-116,458	-0,023	0,003
-177,242	131,064	0,076	-0,071
-176,227	-200,000	-0,007	0,127
-175,212	-200,000	-0,005	0,079
-174,198	-200,000	0,017	0,110
-173,183	-163,410	-0,080	0,003
-172,169	-200,000	-0,011	-0,087
-171,154	-200,000	0,002	-0,139
-170,139	322,434	0,020	0,028
-169,125	-23,970	0,091	0,039
-168,110	134,540	0,098	0,092
-167,096	26,884	-0,026	0,016
-166,081	-2,698	-0,051	0,026
-165,066	-200,000	-0,002	0,011
-164,052	-166,693	-0,038	-0,001
-163,037	590,437	-0,075	0,135
-162,023	-200,000	-0,026	0,185
-161,008	-20,436	0,143	0,064
-159,993	800,000	0,030	-0,062
-158,979	-200,000	-0,032	-0,151
-157,964	554,342	-0,062	0,108
-156,950	-200,000	0,006	0,121
-155,935	-67,290	-0,082	0,023
-154,920	3,361	-0,071	0,037
-153,906	21,799	0,134	-0,079
-152,891	-56,153	-0,079	0,025
-151,877	-103,883	0,136	0,023
-150,862	-58,298	0,053	-0,017
-149,847	212,729	-0,057	0,065
-148,833	110,028	0,059	0,051
-147,818	-64,898	0,069	0,020
-146,804	275,006	0,033	0,042
-145,789	93,443	-0,043	0,035
-144,775	66,047	-0,067	0,049
-143,760	-36,576	0,048	-0,019
-142,745	800,000	-0,059	0,123
-141,731	-27,150	0,163	0,068
-140,716	-84,051	-0,129	0,029
-139,702	11,069	0,197	-0,109
-138,687	512,892	-0,030	0,051
-137,672	156,054	0,045	0,045
-136,658	-52,119	-0,059	-0,020
-135,643	800,000	-0,060	-0,164
-134,629	88,024	0,073	0,059
-133,614	-200,000	-0,013	-0,106
-132,599	800,000	0,021	0,045
-131,585	-57,190	0,081	0,026
-130,570	-135,693	-0,033	-0,003
-129,556	-200,000	-0,033	-0,149
-128,541	-200,000	-0,000	-0,060
-127,526	5,202	0,014	0,008
-126,512	-200,000	-0,007	0,042
-125,497	800,000	-0,041	0,093
-124,483	14,031	-0,019	-0,010
-123,468	-200,000	0,013	0,057
-122,453	114,115	-0,064	0,056
-121,439	800,000	-0,015	-0,037
-120,424	-66,730	-0,104	-0,030
-119,410	-100,414	0,197	0,035
-118,395	162,079	-0,074	0,075
