DTS Sentinel unit serial number:	SN410029Multiplexer serial number:	ORYXHardware model number:	OX2-SRSoftware version number:	ORYX F/W v4,00 Oryx Data Collector v3.7.2.0data status	okinstallation	B6 Nyhavnadifferential loss correction	single-endedforward channel	channel 2reverse channel	N/Adate	2023/12/07time	11:35:08forward acquisition time	300,00reverse acquisition time	0,00gamma	499,1914k internal	0,3203k external	0,3203temperature offset calibration	1,0000default loss term (dB/km)	0,3820temperature slope calibration	1,0000multiplexer offset coefficient	1,0000multiplexer slope coefficient	1,0000fibre end	0,00T internal ref (°C)	8,65T ext. ref 1 (°C)	-5,24T ext. ref 2 (°C)	-5,26length (m)	temperature (°C)	Stokes	anti-Stokes-744,400	405,471	0,053	0,082
-743,385	-27,609	-0,427	-0,179
-742,371	-85,197	0,241	0,054
-741,356	-84,729	-0,358	-0,081
-740,342	2,886	0,193	0,102
-739,327	-71,987	-0,372	-0,100
-738,312	42,526	0,092	0,061
-737,298	38,599	-0,396	-0,256
-736,283	-45,292	0,102	0,037
-735,269	-134,658	-0,308	-0,027
-734,254	217,087	0,143	0,166
-733,239	-88,951	-0,476	-0,102
-732,225	12,431	0,303	0,169
-731,210	-200,000	-0,006	0,072
-730,196	-7,707	0,043	-0,021
-729,181	-83,050	-0,154	-0,036
-728,167	-200,000	-0,002	-0,077
-727,152	-200,000	-0,005	-0,056
-726,137	-61,532	-0,028	0,008
-725,123	-14,384	-0,074	0,034
-724,108	637,534	-0,025	-0,046
-723,094	89,507	0,068	-0,055
-722,079	800,000	0,030	-0,084
-721,064	-200,000	0,014	0,063
-720,050	150,862	0,081	0,080
-719,035	139,525	-0,075	0,072
-718,021	-40,546	-0,168	-0,063
-717,006	219,412	-0,044	-0,051
-715,991	800,000	-0,106	-0,228
-714,977	-200,000	0,005	0,000
-713,962	-130,197	-0,019	0,002
-712,948	800,000	-0,022	-0,066
-711,933	-200,000	-0,025	0,132
-710,918	36,195	-0,046	-0,029
-709,904	-110,033	0,029	-0,004
-708,889	206,528	-0,082	-0,093
-707,875	4,688	0,040	-0,021
-706,860	800,000	-0,042	0,111
-705,845	-164,454	0,053	-0,002
-704,831	-5,739	-0,175	0,087
-703,816	684,823	0,026	-0,050
-702,802	-126,048	-0,125	0,013
-701,787	-99,424	0,066	-0,012
-700,772	237,663	-0,044	-0,053
-699,758	57,416	0,061	-0,044
-698,743	84,238	0,054	-0,043
-697,729	-200,000	-0,015	0,110
-696,714	-200,000	0,021	0,099
-695,699	-189,187	0,037	-0,000
-694,685	204,829	-0,068	0,077
-693,670	-200,000	0,011	0,080
-692,656	-17,516	-0,071	0,032
-691,641	800,000	0,015	-0,031
-690,627	-48,886	0,195	-0,067
-689,612	-200,000	-0,007	0,031
-688,597	-92,771	0,103	0,021
-687,583	-200,000	-0,026	-0,271
-686,568	212,031	-0,123	-0,141
-685,554	-200,000	-0,004	-0,132
-684,539	628,392	-0,031	-0,058
-683,524	18,536	-0,080	-0,046
-682,510	127,318	0,044	-0,041
-681,495	29,228	-0,035	0,022
-680,481	436,184	-0,122	-0,193
-679,466	-28,622	-0,063	-0,026
-678,451	239,511	0,019	-0,023
-677,437	800,000	-0,025	-0,058
-676,422	-19,476	-0,122	-0,055
-675,408	290,101	0,029	0,039
-674,393	202,542	0,031	0,034
-673,378	-200,000	0,004	-0,048
-672,364	175,077	-0,044	0,046
-671,349	-200,000	-0,017	-0,109
-670,335	-6,096	0,182	-0,090
-669,320	107,194	-0,107	0,092
-668,305	147,681	-0,043	-0,042
-667,291	-75,224	-0,080	-0,021
-666,276	800,000	-0,048	-0,141
-665,262	-65,338	-0,018	0,005
-664,247	58,395	-0,101	-0,071
-663,232	-196,023	0,091	0,000
-662,218	-180,548	-0,036	0,001
-661,203	800,000	-0,034	0,071
-660,189	-200,000	-0,008	0,072
-659,174	-144,980	-0,062	0,004
-658,159	-200,000	-0,022	-0,073
-657,145	322,121	-0,063	-0,088
-656,130	-26,279	0,055	-0,023
-655,116	-200,000	-0,013	-0,092
-654,101	26,208	-0,119	0,072
-653,086	-200,000	0,016	-0,066
-652,072	-75,521	-0,160	0,041
-651,057	-200,000	0,020	0,066
-650,043	-0,875	-0,060	0,031
-649,028	-75,851	-0,084	-0,021
-648,014	-63,030	-0,150	0,045
-646,999	-200,000	0,003	-0,036
-645,984	340,365	0,050	-0,070
-644,970	-91,198	-0,209	-0,043
-643,955	0,586	-0,117	-0,060
-642,941	-168,979	0,138	-0,004
-641,926	-200,000	0,029	0,171
-640,911	793,894	0,068	-0,135
-639,897	503,190	0,043	-0,073
-638,882	-47,639	-0,058	0,020
-637,868	-200,000	-0,001	-0,009
-636,853	800,000	-0,017	-0,041
-635,838	492,160	-0,091	-0,152
-634,824	-200,000	-0,005	0,027
-633,809	-200,000	-0,007	0,126
-632,795	800,000	-0,017	-0,052
-631,780	-116,866	-0,069	0,009
-630,765	132,375	0,005	-0,005
-629,751	-200,000	-0,013	-0,055
-628,736	78,886	-0,061	-0,047
-627,722	-71,460	-0,086	-0,023
-626,707	19,289	0,051	-0,030
-625,692	56,862	0,041	0,029
-624,678	-200,000	-0,005	0,019
-623,663	186,801	-0,057	0,061
-622,649	-48,626	0,033	-0,011
-621,634	-98,326	0,042	0,008
-620,619	-200,000	-0,013	-0,048
-619,605	800,000	-0,045	-0,123
-618,590	-85,229	0,055	-0,012
-617,576	-200,000	-0,001	0,076
-616,561	188,515	0,092	0,100
-615,546	-200,000	0,021	-0,101
-614,532	241,362	-0,055	-0,067
-613,517	-200,000	-0,008	-0,099
-612,503	-130,791	0,063	0,006
-611,488	-100,241	0,024	-0,004
-610,474	-72,817	-0,151	0,040
-609,459	18,195	0,009	0,005
-608,444	-200,000	-0,004	-0,052
-607,430	13,930	0,087	0,049
-606,415	-16,818	0,081	0,037
-605,401	-99,858	-0,110	0,020
-604,386	4,490	0,087	-0,046
-603,371	-200,000	0,066	0,000
-602,357	314,692	-0,048	-0,065
-601,342	-47,403	-0,122	0,043
-600,328	117,828	-0,062	0,055
-599,313	353,568	-0,021	-0,030
-598,298	-131,106	-0,104	-0,010
-597,284	16,159	0,056	-0,032
-596,269	409,451	0,129	0,198
-595,255	-71,900	0,072	0,019
-594,240	-53,302	0,071	-0,023
-593,225	-81,450	0,070	0,017
-592,211	621,491	-0,050	0,091
-591,196	800,000	-0,020	0,042
-590,182	571,348	-0,044	0,078
-589,167	-99,015	0,020	0,004
-588,152	-15,594	0,041	0,019
-587,138	49,869	-0,107	0,073
-586,123	445,849	0,039	-0,062
-585,109	-87,013	-0,121	0,026
-584,094	-200,000	-0,023	0,090
-583,079	-100,908	-0,112	0,020
-582,065	671,526	-0,033	-0,062
-581,050	-18,995	0,053	0,024
-580,036	588,536	0,101	0,181
-579,021	-200,000	0,001	-0,027
-578,006	63,253	-0,119	-0,086
-576,992	-53,755	0,173	0,057
-575,977	226,497	-0,025	-0,030
-574,963	346,171	-0,116	-0,165
-573,948	223,450	-0,059	-0,069
-572,934	-21,624	0,084	0,037
-571,919	-200,000	0,055	-0,185
-570,904	800,000	0,025	-0,073
-569,890	800,000	0,051	-0,135
-568,875	800,000	0,015	0,032
-567,861	184,824	0,021	-0,022
-566,846	800,000	0,043	0,106
-565,831	160,730	0,173	0,175
-564,817	144,535	-0,096	0,092
-563,802	-200,000	-0,034	-0,143
-562,788	-9,893	-0,080	-0,038
-561,773	510,488	0,026	0,044
-560,758	-200,000	0,005	0,095
-559,744	-103,010	0,018	-0,003
-558,729	182,199	0,067	-0,072
-557,715	-70,901	0,052	-0,014
-556,700	-137,655	-0,193	-0,015
-555,685	15,855	-0,077	-0,044
-554,671	-134,547	-0,006	0,001
-553,656	-121,170	-0,042	0,005
-552,642	800,000	-0,098	0,231
-551,627	-60,563	0,069	0,021
-550,612	39,705	0,112	-0,072
-549,598	-200,000	-0,010	-0,037
-548,583	-200,000	0,003	0,084
-547,569	-167,910	0,217	-0,006
-546,554	800,000	0,025	-0,078
-545,539	-72,443	-0,118	-0,031
-544,525	9,718	0,015	-0,008
-543,510	-200,000	-0,017	0,103
-542,496	548,272	-0,040	-0,069
-541,481	-135,606	0,021	0,002
-540,466	171,121	0,047	0,048
-539,452	-200,000	-0,006	0,064
-538,437	3,049	-0,077	-0,040
-537,423	376,349	0,057	-0,084
-536,408	-200,000	-0,016	-0,086
-535,393	-200,000	-0,018	-0,103
-534,379	-88,914	-0,134	0,028
-533,364	800,000	0,013	-0,041
-532,350	-0,028	0,064	0,033
-531,335	800,000	-0,014	0,034
-530,321	163,018	0,084	-0,085
-529,306	39,569	-0,077	0,049
-528,291	-48,956	-0,097	-0,033
-527,277	28,504	-0,070	-0,043
-526,262	76,324	0,125	-0,095
-525,248	116,149	-0,041	0,036
-524,233	-200,000	-0,004	0,105
-523,218	135,653	0,057	-0,053
-522,204	-52,131	0,046	0,015
-521,189	-48,005	0,055	-0,019
-520,175	15,092	-0,085	-0,048
-519,160	-64,678	0,030	0,009
-518,145	-95,193	0,113	0,022
-517,131	-8,645	-0,193	0,093
-516,116	-200,000	-0,068	0,228
-515,102	-200,000	-0,003	0,094
-514,087	-131,617	-0,017	0,002
-513,072	510,366	-0,051	-0,085
-512,058	800,000	-0,057	-0,119
-511,043	220,127	-0,096	0,111
-510,029	42,266	-0,110	0,072
-509,014	-27,320	0,046	0,019
-507,999	219,207	-0,040	0,046
-506,985	-200,000	0,001	-0,121
-505,970	-200,000	0,016	0,117
-504,956	800,000	-0,067	0,175
-503,941	13,748	0,119	0,066
-502,926	131,779	-0,030	0,028
-501,912	372,599	-0,035	0,051
-500,897	57,169	0,008	0,006
-499,883	100,477	-0,061	0,051
-498,868	75,938	-0,023	-0,017
-497,853	-200,000	0,010	0,112
-496,839	260,501	-0,076	0,095
-495,824	-120,945	0,113	-0,014
-494,810	341,179	0,029	-0,041
-493,795	-3,316	-0,107	0,053
-492,781	-149,412	0,100	0,006
-491,766	800,000	0,016	-0,044
-490,751	42,213	-0,116	-0,076
-489,737	800,000	-0,043	-0,093
-488,722	-200,000	0,016	-0,133
-487,708	160,723	0,042	0,042
-486,693	800,000	0,052	0,131
-485,678	-59,837	0,105	0,032
-484,664	-200,000	-0,028	-0,102
-483,649	137,648	-0,057	0,054
-482,635	800,000	-0,024	-0,060
-481,620	399,153	-0,016	-0,024
-480,605	46,695	0,099	0,066
-479,591	-200,000	-0,029	0,104
-478,576	-100,322	0,049	-0,009
-477,562	-200,000	-0,044	-0,166
-476,547	-107,567	-0,086	0,013
-475,532	23,560	-0,085	-0,050
-474,518	-200,000	0,015	0,085
-473,503	-59,286	0,185	-0,057
-472,489	390,574	-0,019	0,028
-471,474	77,002	0,021	-0,016
-470,459	8,678	-0,122	0,066
-469,445	2,098	-0,064	-0,033
-468,430	-200,000	0,045	-0,189
-467,416	122,677	0,042	-0,037
-466,401	333,208	0,072	0,100
-465,386	-131,635	-0,002	0,000
-464,372	344,969	-0,088	0,125
-463,357	102,651	-0,062	-0,052
-462,343	387,235	0,098	-0,146
-461,328	-84,576	0,034	-0,008
-460,313	58,486	-0,033	0,023
-459,299	75,284	0,016	0,012
-458,284	-200,000	0,009	0,068
-457,270	-200,000	-0,007	-0,053
-456,255	-61,793	0,025	0,007
-455,241	45,297	0,068	-0,045
-454,226	-200,000	-0,010	0,041
-453,211	262,189	-0,124	-0,155
-452,197	-200,000	0,025	0,156
-451,182	-200,000	0,081	0,303
-450,168	109,608	-0,075	-0,064
-449,153	36,109	-0,038	-0,024
-448,138	-200,000	-0,003	-0,053
-447,124	-200,000	0,011	-0,043
-446,109	539,093	0,026	0,045
-445,095	-200,000	0,038	0,123
-444,080	588,537	0,067	-0,119
-443,065	-16,402	0,043	0,020
-442,051	-153,022	0,022	0,001
-441,036	140,493	-0,121	0,115
-440,022	-146,658	-0,007	0,000
-439,007	88,227	0,044	0,035
-437,992	800,000	-0,042	-0,089
-436,978	-33,964	0,180	0,071
-435,963	21,730	-0,086	0,050
-434,949	-200,000	-0,020	0,177
-433,934	-47,744	-0,041	0,014
-432,919	-200,000	-0,010	-0,034
-431,905	800,000	-0,022	-0,046
-430,890	412,270	0,017	0,026
-429,876	-50,344	-0,104	0,035
-428,861	82,094	0,034	0,027
-427,846	77,108	-0,128	0,098
-426,832	373,503	0,036	0,053
-425,817	-87,829	-0,107	-0,023
-424,803	27,207	-0,082	0,049
-423,788	-200,000	0,022	0,160
-422,773	-20,092	0,090	-0,040
-421,759	-66,122	0,048	0,014
-420,744	-118,341	0,028	-0,003
-419,730	-200,000	0,009	-0,082
-418,715	-26,480	0,028	-0,012
-417,701	51,612	-0,093	-0,063
-416,686	-117,028	-0,057	0,007
-415,671	654,399	-0,015	0,029
-414,657	-200,000	-0,007	0,070
-413,642	800,000	0,038	0,097
-412,628	-200,000	-0,017	-0,099
-411,613	612,279	-0,012	0,022
-410,598	-200,000	-0,014	-0,133
-409,584	800,000	0,024	0,073
-408,569	-2,751	0,098	0,049
-407,555	-142,281	-0,253	-0,018
-406,540	-124,238	0,245	-0,027
-405,525	-200,000	0,002	-0,141
-404,511	342,289	-0,057	-0,081
-403,496	-105,969	-0,224	0,036
-402,482	150,561	0,017	0,016
-401,467	-200,000	0,014	-0,167
-400,452	800,000	-0,051	-0,102
-399,438	-200,000	0,022	0,152
-398,423	800,000	-0,013	0,027
-397,409	-200,000	-0,005	-0,047
-396,394	-154,211	-0,120	-0,006
-395,379	-200,000	0,040	0,161
-394,365	427,615	0,047	0,072
-393,350	527,996	0,049	-0,083
-392,336	61,404	0,113	-0,080
-391,321	146,146	-0,072	-0,069
-390,306	87,541	0,119	-0,094
-389,292	-98,097	-0,092	0,017
-388,277	-200,000	0,030	-0,146
-387,263	500,595	0,054	0,090
-386,248	800,000	0,031	-0,079
-385,233	800,000	-0,038	0,105
-384,219	-74,669	-0,043	0,011
-383,204	-6,325	0,080	0,039
-382,190	-155,430	0,078	0,004
-381,175	-86,058	-0,130	-0,028
-380,160	-48,114	0,089	0,031
-379,146	5,654	-0,086	-0,046
-378,131	800,000	0,010	0,027
-377,117	-59,782	0,095	-0,029
-376,102	-49,814	0,035	0,012
-375,088	-131,644	-0,197	-0,018
-374,073	170,282	-0,061	-0,063
-373,058	-15,822	0,032	-0,014
-372,044	38,490	-0,105	0,067
-371,029	211,067	-0,034	0,038
-370,015	-56,104	-0,086	0,027
-369,000	209,504	-0,030	-0,033
-367,985	15,078	-0,079	-0,044
-366,971	-192,651	-0,082	-0,001
-365,956	-200,000	-0,055	0,201
-364,942	57,031	0,055	0,039
-363,927	800,000	0,043	0,120
-362,912	707,153	-0,046	-0,088
-361,898	-151,663	0,039	0,002
-360,883	-107,652	-0,157	-0,024
-359,869	-200,000	0,002	0,026
-358,854	-3,704	-0,117	-0,058
-357,839	46,163	-0,046	0,031
-356,825	222,132	-0,064	-0,074
-355,810	-171,063	0,096	-0,002
-354,796	-134,868	0,097	0,008
-353,781	-54,103	-0,089	-0,029
-352,766	176,155	-0,045	-0,047
-351,752	47,348	0,048	-0,032
-350,737	-43,850	0,078	0,028
-349,723	527,065	0,032	-0,053
-348,708	-126,962	0,138	-0,014
-347,693	272,592	0,068	-0,087
-346,679	-148,092	0,132	0,008
-345,664	54,297	-0,011	-0,008
-344,650	-38,694	-0,039	-0,015
-343,635	-141,192	0,111	-0,008
-342,620	-100,708	0,127	-0,022
-341,606	-127,793	0,019	-0,002
-340,591	-200,000	-0,007	-0,025
-339,577	800,000	-0,043	-0,128
-338,562	-200,000	0,008	0,028
-337,548	800,000	-0,060	0,127
-336,533	-162,155	0,209	0,007
-335,518	-200,000	-0,014	0,057
-334,504	201,532	-0,067	0,074
-333,489	-200,000	-0,036	-0,137
-332,475	-200,000	-0,031	0,157
-331,460	800,000	0,014	-0,037
-330,445	-129,073	-0,065	-0,006
-329,431	-158,302	0,055	0,002
-328,416	-200,000	-0,001	0,028
-327,402	38,038	0,096	0,061
-326,387	800,000	0,042	0,090
-325,372	800,000	0,034	-0,105
-324,358	291,323	-0,072	-0,094
-323,343	800,000	-0,038	0,075
-322,329	-37,717	0,099	-0,038
-321,314	-200,000	0,047	0,166
-320,299	72,653	-0,056	0,042
-319,285	-11,107	0,014	0,007
-318,270	-67,638	-0,089	0,025
-317,256	731,401	0,049	-0,095
-316,241	-118,002	0,195	-0,025
-315,226	306,940	0,009	-0,012
-314,212	-200,000	0,031	-0,101
-313,197	50,708	-0,121	0,082
-312,183	-27,879	0,062	0,026
-311,168	-200,000	-0,013	0,082
-310,153	-200,000	0,017	0,103
-309,139	20,818	-0,117	0,067
-308,124	-200,000	0,014	0,151
-307,110	331,190	0,012	-0,017
-306,095	-101,853	0,076	-0,013
-305,080	800,000	-0,048	0,115
-304,066	-200,000	-0,082	-0,000
-303,051	85,182	0,047	-0,037
-302,037	466,624	-0,099	-0,159
-301,022	-83,168	-0,123	0,028
-300,008	-200,000	-0,027	-0,110
-298,993	347,761	0,054	-0,077
-297,978	73,641	-0,032	0,024
-296,964	-200,000	-0,009	0,090
-295,949	-39,575	-0,078	-0,029
-294,935	310,743	0,083	-0,111
-293,920	-200,000	0,015	-0,096
-292,905	242,316	0,039	-0,047
-291,891	-183,366	0,159	-0,002
-290,876	-149,438	-0,138	-0,008
-289,862	-127,336	0,102	-0,010
-288,847	-200,000	0,002	0,056
-287,832	-200,000	0,012	-0,097
-286,818	-200,000	0,017	-0,055
-285,803	-200,000	0,020	0,078
-284,789	-8,588	0,106	-0,050
-283,774	130,196	-0,079	0,072
-282,759	89,055	-0,049	0,039
-281,745	-61,526	0,075	-0,022
-280,730	-200,000	-0,024	-0,084
-279,716	-200,000	0,019	-0,104
-278,701	-130,156	0,102	-0,010
-277,686	800,000	0,035	0,108
-276,672	-200,000	-0,151	-0,000
-275,657	-102,286	0,071	-0,012
-274,643	452,946	-0,048	-0,076
-273,628	-100,350	0,122	0,021
-272,613	-89,772	-0,143	0,030
-271,599	-200,000	0,001	-0,089
-270,584	-200,000	-0,030	0,161
-269,570	133,384	0,105	0,097
-268,555	162,669	0,210	0,210
-267,540	-80,943	0,151	0,035
-266,526	177,804	-0,096	0,100
-265,511	800,000	-0,079	0,174
-264,497	278,453	0,059	0,075
-263,482	-200,000	0,022	0,104
-262,467	69,777	0,091	-0,067
-261,453	-141,836	-0,150	-0,011
-260,438	369,394	-0,101	-0,146
-259,424	139,681	-0,030	0,028
-258,409	-25,609	-0,039	-0,017
-257,395	564,426	0,078	0,135
-256,380	800,000	-0,006	0,012
-255,365	59,793	0,063	-0,045
-254,351	208,018	-0,104	-0,116
-253,336	-200,000	-0,008	-0,026
-252,322	-200,000	0,013	0,069
-251,307	200,137	0,077	-0,084
-250,292	30,398	0,017	-0,010
-249,278	124,377	0,155	-0,139
-248,263	-5,279	-0,074	-0,036
-247,249	387,935	0,024	0,036
-246,234	-126,329	-0,117	-0,012
-245,219	50,081	0,140	-0,094
-244,205	-60,929	-0,080	-0,024
-243,190	-200,000	-0,000	0,015
-242,176	-200,000	0,003	0,061
-241,161	-200,000	0,009	0,133
-240,146	132,283	0,038	0,035
-239,132	-104,028	0,059	0,010
-238,117	-200,000	0,003	-0,076
-237,103	-151,205	-0,028	-0,001
-236,088	143,831	0,052	0,049
-235,073	-111,376	0,113	-0,016
-234,059	369,158	0,138	0,200
-233,044	-123,209	0,039	0,004
-232,030	800,000	0,038	0,107
-231,015	688,918	-0,024	0,045
-230,000	463,439	0,059	-0,095
-228,986	-200,000	0,025	-0,104
-227,971	322,442	0,064	-0,087
-226,957	-102,579	0,114	0,019
-225,942	-111,490	0,125	0,018
-224,927	-200,000	-0,047	0,163
-223,913	635,965	-0,007	0,012
-222,898	330,423	-0,041	-0,056
-221,884	141,571	-0,083	-0,078
-220,869	-37,033	0,035	-0,013
-219,855	-124,684	0,167	-0,018
-218,840	-200,000	0,001	-0,060
-217,825	117,684	-0,086	0,075
-216,811	420,252	0,087	-0,133
-215,796	-49,287	-0,167	-0,056
-214,782	-42,393	-0,093	0,034
-213,767	-122,961	0,070	0,008
-212,752	28,351	0,044	-0,027
-211,738	-200,000	-0,019	-0,158
-210,723	-48,976	0,127	-0,043
-209,709	-200,000	0,000	-0,011
-208,694	-51,338	-0,085	-0,028
-207,679	4,022	-0,078	0,041
-206,665	512,805	-0,037	-0,062
-205,650	21,389	0,019	-0,011
-204,636	-57,343	-0,111	-0,035
-203,621	-22,315	0,092	-0,039
-202,606	-67,860	-0,093	-0,026
-201,592	800,000	-0,043	-0,088
-200,577	800,000	-0,031	0,084
-199,563	-200,000	0,009	-0,039
-198,548	-200,000	-0,004	-0,140
-197,533	-112,117	0,041	0,006
-196,519	-2,773	-0,032	0,016
-195,504	800,000	0,023	0,047
-194,490	800,000	0,034	0,080
-193,475	487,062	-0,059	-0,096
-192,460	350,272	-0,038	0,054
-191,446	128,384	-0,046	-0,042
-190,431	438,829	-0,058	-0,090
-189,417	322,066	0,051	-0,069
-188,402	482,060	-0,054	-0,087
-187,387	-74,856	-0,132	0,033
-186,373	-200,000	-0,005	-0,108
-185,358	-68,780	-0,110	0,030
-184,344	-114,911	0,135	-0,018
-183,329	60,405	0,053	0,037
-182,315	-200,000	0,021	0,123
-181,300	206,517	-0,059	-0,066
-180,285	-96,868	0,138	-0,025
-179,271	-200,000	0,021	-0,139
-178,256	-29,425	-0,087	-0,035
-177,242	-27,346	0,136	-0,056
-176,227	800,000	-0,020	0,041
-175,212	-200,000	0,019	-0,075
-174,198	-200,000	-0,012	-0,046
-173,183	94,471	-0,067	-0,054
-172,169	125,397	-0,073	-0,066
-171,154	-200,000	-0,030	-0,133
-170,139	81,200	-0,032	0,024
-169,125	465,548	-0,049	0,078
-168,110	-13,615	0,148	0,068
-167,096	-67,692	0,116	-0,032
-166,081	-200,000	-0,020	0,136
-165,066	-200,000	-0,006	-0,265
-164,052	474,637	-0,086	-0,139
-163,037	159,761	0,063	-0,062
-162,023	-200,000	-0,013	0,161
-161,008	-19,883	0,045	0,020
-159,993	65,955	-0,157	0,113
-158,979	83,984	0,025	0,019
-157,964	166,222	0,208	-0,209
-156,950	800,000	-0,048	0,134
-155,935	224,633	0,098	0,113
-154,920	-115,890	0,110	-0,014
-153,906	607,789	0,053	0,094
-152,891	32,959	0,159	0,098
-151,877	-200,000	0,017	0,139
-150,862	-23,772	0,089	-0,038
-149,847	92,687	-0,018	-0,015
-148,833	99,227	0,043	-0,035
-147,818	537,481	0,056	0,095
-146,804	-123,196	0,090	0,010
-145,789	159,101	-0,044	-0,044
-144,775	800,000	0,009	-0,028
-143,760	179,337	-0,196	-0,204
-142,745	396,561	-0,011	-0,017
-141,731	-200,000	0,001	-0,051
-140,716	107,095	0,143	-0,120
-139,702	8,277	0,106	-0,056
-138,687	-200,000	-0,007	-0,067
-137,672	450,069	0,041	0,065
-136,658	-16,993	-0,118	0,053
-135,643	360,974	-0,069	0,098
-134,629	135,246	-0,111	-0,103
-133,614	-200,000	-0,021	0,162
-132,599	-69,494	-0,068	0,018
-131,585	494,498	-0,027	0,044
-130,570	-105,446	-0,061	-0,010
-129,556	82,674	-0,049	-0,038
-128,541	282,820	0,035	-0,045
-127,526	115,759	-0,071	-0,062
-126,512	-200,000	-0,014	0,125
-125,497	-69,106	0,043	-0,012
-124,483	796,267	-0,047	-0,091
-123,468	-200,000	0,009	0,072
-122,453	800,000	0,026	-0,059
-121,439	-200,000	0,023	-0,150
-120,424	-200,000	0,007	-0,048
