DTS Sentinel unit serial number:	SN410029Multiplexer serial number:	ORYXHardware model number:	OX2-SRSoftware version number:	ORYX F/W v4,00 Oryx Data Collector v3.7.2.0data status	okinstallation	B6 Nyhavnadifferential loss correction	single-endedforward channel	channel 2reverse channel	N/Adate	2023/12/08time	01:15:08forward acquisition time	300,00reverse acquisition time	0,00gamma	499,1914k internal	0,3165k external	0,3165temperature offset calibration	1,0000default loss term (dB/km)	0,3820temperature slope calibration	1,0000multiplexer offset coefficient	1,0000multiplexer slope coefficient	1,0000fibre end	0,00T internal ref (°C)	13,26T ext. ref 1 (°C)	-3,60T ext. ref 2 (°C)	-3,60length (m)	temperature (°C)	Stokes	anti-Stokes-744,400	800,000	-0,067	-0,202
-743,385	-115,174	-0,361	-0,050
-742,371	49,169	0,089	-0,061
-741,356	-37,327	-0,270	-0,105
-740,342	-92,535	0,112	-0,023
-739,327	-127,799	-0,356	0,037
-738,312	104,050	0,058	-0,050
-737,298	-62,145	-0,324	-0,099
-736,283	-46,070	0,145	-0,052
-735,269	-152,033	-0,247	0,013
-734,254	-25,397	0,174	0,075
-733,239	-12,272	-0,480	-0,230
-732,225	-27,086	0,224	-0,096
-731,210	-33,852	-0,093	-0,037
-730,196	-200,000	-0,000	-0,163
-729,181	-200,000	-0,015	-0,057
-728,167	-30,822	0,034	0,014
-727,152	-200,000	-0,002	0,071
-726,137	-110,399	-0,095	-0,014
-725,123	-34,671	-0,050	-0,020
-724,108	-161,831	-0,107	-0,004
-723,094	38,058	-0,082	0,053
-722,079	-200,000	0,001	-0,016
-721,064	148,627	0,074	-0,074
-720,050	-200,000	-0,017	-0,173
-719,035	145,641	-0,026	0,026
-718,021	308,637	0,089	-0,122
-717,006	-200,000	0,004	-0,136
-715,991	325,150	-0,077	-0,108
-714,977	800,000	0,026	0,063
-713,962	-200,000	-0,016	-0,076
-712,948	27,562	-0,055	0,034
-711,933	-200,000	0,020	-0,079
-710,918	-200,000	0,005	-0,059
-709,904	-41,209	-0,149	-0,056
-708,889	-178,875	-0,214	0,003
-707,875	17,376	-0,095	0,055
-706,860	800,000	0,025	0,062
-705,845	649,395	0,104	0,196
-704,831	-200,000	0,002	0,030
-703,816	195,096	0,008	-0,009
-702,802	229,883	0,146	-0,175
-701,787	-200,000	0,024	-0,110
-700,772	643,307	-0,029	-0,054
-699,758	-105,015	-0,065	-0,011
-698,743	-164,254	-0,040	0,001
-697,729	-124,740	0,124	-0,014
-696,714	303,292	-0,051	0,070
-695,699	23,408	-0,078	0,047
-694,685	-27,845	-0,087	-0,037
-693,670	-143,029	-0,072	-0,005
-692,656	249,869	0,051	-0,064
-691,641	-200,000	0,040	-0,142
-690,627	-200,000	0,026	0,095
-689,612	526,313	-0,024	0,042
-688,597	-108,223	-0,067	0,010
-687,583	756,377	-0,051	-0,101
-686,568	-200,000	0,006	-0,044
-685,554	217,452	0,044	-0,051
-684,539	-2,616	0,092	-0,047
-683,524	286,672	0,053	0,070
-682,510	290,589	-0,079	-0,106
-681,495	22,838	-0,145	-0,087
-680,481	800,000	0,042	-0,100
-679,466	800,000	-0,035	-0,101
-678,451	51,496	-0,086	0,060
-677,437	348,227	-0,057	0,082
-676,422	226,893	0,017	0,021
-675,408	-2,488	-0,109	-0,056
-674,393	48,419	-0,060	0,041
-673,378	384,667	-0,076	-0,115
-672,364	-200,000	-0,023	-0,152
-671,349	459,598	-0,064	0,105
-670,335	162,372	-0,075	0,077
-669,320	394,887	-0,074	0,113
-668,305	-200,000	0,006	0,026
-667,291	-200,000	0,013	-0,052
-666,276	476,539	-0,059	-0,098
-665,262	800,000	-0,034	-0,080
-664,247	-200,000	0,012	-0,172
-663,232	468,473	-0,045	0,074
-662,218	-91,361	-0,136	-0,028
-661,203	-43,342	0,076	0,028
-660,189	202,543	0,041	0,047
-659,174	138,375	-0,042	0,041
-658,159	-18,155	-0,044	0,020
-657,145	219,977	0,127	-0,150
-656,130	-31,831	-0,231	-0,094
-655,116	131,558	-0,056	0,053
-654,101	-108,371	0,144	0,023
-653,086	493,074	-0,047	0,079
-652,072	-200,000	0,007	-0,071
-651,057	-0,847	-0,055	-0,028
-650,043	331,102	-0,083	-0,117
-649,028	-28,833	-0,102	-0,043
-648,014	800,000	0,031	-0,090
-646,999	-153,923	-0,124	-0,006
-645,984	-200,000	0,008	-0,067
-644,970	158,162	-0,053	0,054
-643,955	12,560	-0,122	0,069
-642,941	538,622	-0,051	0,090
-641,926	-200,000	0,008	-0,135
-640,911	169,667	0,047	-0,049
-639,897	-200,000	-0,005	-0,035
-638,882	351,770	-0,046	-0,066
-637,868	750,243	-0,014	-0,028
-636,853	500,561	-0,054	-0,092
-635,838	6,099	-0,064	-0,035
-634,824	-200,000	0,022	-0,077
-633,809	205,929	0,022	-0,025
-632,795	-65,293	-0,119	0,035
-631,780	-71,716	-0,026	-0,007
-630,765	-135,764	-0,040	0,003
-629,751	109,061	-0,108	0,094
-628,736	800,000	-0,032	-0,085
-627,722	-200,000	0,025	-0,226
-626,707	-200,000	0,016	0,133
-625,692	-28,506	-0,094	-0,039
-624,678	79,421	-0,067	0,052
-623,663	-200,000	0,009	0,075
-622,649	-108,303	-0,116	0,018
-621,634	-200,000	0,011	-0,052
-620,619	-200,000	-0,017	0,085
-619,605	-21,426	-0,045	0,020
-618,590	220,609	0,016	0,019
-617,576	-86,044	0,004	-0,001
-616,561	183,347	-0,043	0,047
-615,546	69,633	-0,088	-0,066
-614,532	73,897	-0,122	-0,093
-613,517	800,000	-0,063	0,140
-612,503	183,694	-0,061	-0,066
-611,488	-200,000	0,030	0,119
-610,474	400,533	0,051	0,079
-609,459	-49,149	0,084	-0,029
-608,444	-49,567	-0,108	0,037
-607,430	800,000	0,048	-0,100
-606,415	-200,000	-0,014	-0,224
-605,401	17,225	-0,085	-0,049
-604,386	59,506	0,080	0,058
-603,371	-123,567	0,049	-0,006
-602,357	-200,000	0,005	-0,065
-601,342	-120,973	-0,067	-0,008
-600,328	-137,083	-0,084	-0,007
-599,313	800,000	-0,029	-0,074
-598,298	-78,943	0,097	0,024
-597,284	-200,000	0,010	0,114
-596,269	-200,000	0,002	0,018
-595,255	800,000	0,037	0,116
-594,240	-155,760	-0,088	0,004
-593,225	98,002	-0,060	0,050
-592,211	800,000	-0,047	-0,122
-591,196	800,000	-0,027	-0,062
-590,182	-104,695	-0,119	-0,020
-589,167	103,638	-0,052	0,045
-588,152	-8,436	0,068	-0,033
-587,138	498,629	0,032	-0,055
-586,123	107,821	-0,123	-0,107
-585,109	262,169	-0,025	0,032
-584,094	-200,000	0,019	-0,209
-583,079	-80,341	0,072	0,017
-582,065	275,249	0,052	-0,067
-581,050	155,443	0,009	-0,009
-580,036	800,000	-0,019	-0,041
-579,021	130,977	-0,037	-0,035
-578,006	-200,000	0,006	-0,081
-576,992	-124,516	0,126	-0,014
-575,977	32,333	-0,082	0,052
-574,963	276,355	-0,046	-0,060
-573,948	12,011	0,064	-0,036
-572,934	-200,000	-0,010	-0,039
-571,919	-200,000	0,007	-0,080
-570,904	800,000	0,016	-0,050
-569,890	-111,317	-0,160	-0,024
-568,875	68,387	-0,069	-0,052
-567,861	792,013	0,069	-0,140
-566,846	-54,792	-0,087	0,029
-565,831	-124,780	-0,051	-0,006
-564,817	28,135	-0,082	-0,050
-563,802	-3,773	-0,153	-0,077
-562,788	-200,000	-0,042	0,000
-561,773	30,712	0,112	-0,070
-560,758	-102,027	0,004	-0,001
-559,744	466,768	-0,085	0,140
-558,729	-200,000	-0,004	0,126
-557,715	226,593	0,011	0,014
-556,700	42,074	0,123	-0,082
-555,685	6,401	-0,050	-0,027
-554,671	62,947	-0,068	-0,050
-553,656	123,151	0,108	-0,099
-552,642	283,728	0,072	0,095
-551,627	239,658	-0,062	0,076
-550,612	800,000	0,014	-0,046
-549,598	-200,000	0,013	-0,111
-548,583	-5,878	0,067	-0,033
-547,569	-155,316	0,062	0,003
-546,554	-30,582	0,038	-0,016
-545,539	-68,672	-0,056	0,016
-544,525	-200,000	-0,014	0,049
-543,510	799,971	-0,049	-0,100
-542,496	-41,283	-0,131	-0,049
-541,481	-125,196	-0,020	-0,002
-540,466	-104,041	-0,059	0,010
-539,452	-165,487	0,171	-0,005
-538,437	103,471	0,035	-0,030
-537,423	506,477	-0,045	0,076
-536,408	37,177	-0,102	0,066
-535,393	-200,000	0,019	-0,083
-534,379	-200,000	-0,013	-0,088
-533,364	-63,428	-0,040	0,012
-532,350	-178,470	0,129	-0,002
-531,335	44,301	-0,104	0,070
-530,321	-200,000	-0,020	0,155
-529,306	-129,435	-0,147	0,015
-528,291	-111,754	0,021	-0,003
-527,277	-117,600	-0,161	-0,021
-526,262	-200,000	0,007	0,122
-525,248	298,622	0,012	0,016
-524,233	800,000	-0,053	-0,109
-523,218	-124,934	-0,100	0,011
-522,204	40,544	0,049	-0,032
-521,189	480,262	-0,047	-0,079
-520,175	-200,000	-0,016	-0,067
-519,160	800,000	-0,043	-0,103
-518,145	-179,861	0,136	0,002
-517,131	800,000	0,018	-0,056
-516,116	255,930	-0,018	-0,023
-515,102	-91,923	0,074	-0,015
-514,087	-76,029	-0,011	-0,003
-513,072	-200,000	-0,022	-0,116
-512,058	-200,000	0,018	0,072
-511,043	-200,000	0,016	0,114
-510,029	800,000	-0,066	0,157
-509,014	800,000	0,022	-0,063
-507,999	800,000	0,015	-0,042
-506,985	800,000	-0,067	-0,194
-505,970	63,086	-0,082	-0,060
-504,956	-35,072	0,061	-0,024
-503,941	-150,329	-0,033	-0,002
-502,926	553,249	0,030	-0,054
-501,912	446,757	0,028	0,045
-500,897	-200,000	-0,008	-0,140
-499,883	-200,000	-0,014	-0,052
-498,868	145,224	-0,047	0,046
-497,853	-200,000	0,010	0,035
-496,839	631,730	0,043	-0,080
-495,824	-147,804	-0,048	-0,003
-494,810	25,563	0,111	0,067
-493,795	-95,221	-0,039	-0,008
-492,781	532,516	-0,101	0,174
-491,766	70,796	0,067	0,050
-490,751	-11,885	-0,188	0,090
-489,737	800,000	-0,042	0,085
-488,722	800,000	0,007	0,017
-487,708	-4,408	0,037	0,019
-486,693	-140,680	0,151	0,011
-485,678	87,056	-0,056	0,045
-484,664	-200,000	-0,004	-0,080
-483,649	-200,000	0,011	-0,092
-482,635	-200,000	0,002	-0,084
-481,620	-200,000	-0,007	-0,100
-480,605	-3,575	0,159	0,080
-479,591	50,420	-0,033	-0,023
-478,576	-125,813	-0,166	-0,018
-477,562	800,000	-0,006	-0,019
-476,547	-200,000	0,022	-0,074
-475,532	97,009	0,049	-0,041
-474,518	-200,000	-0,020	-0,081
-473,503	679,718	0,029	0,056
-472,489	-2,988	-0,066	0,033
-471,474	800,000	0,002	-0,005
-470,459	-200,000	-0,007	-0,037
-469,445	103,998	-0,012	0,010
-468,430	-107,807	0,087	-0,014
-467,416	-200,000	0,004	-0,100
-466,401	287,367	0,009	-0,011
-465,386	-142,256	-0,055	0,004
-464,372	800,000	-0,030	0,069
-463,357	800,000	0,012	0,030
-462,343	299,582	0,064	-0,086
-461,328	-57,555	-0,116	0,037
-460,313	-99,604	0,118	0,021
-459,299	-151,399	0,142	0,008
-458,284	69,156	0,113	0,085
-457,270	-40,569	-0,145	0,054
-456,255	-105,584	0,043	-0,007
-455,241	-115,425	-0,100	-0,014
-454,226	-200,000	0,022	0,082
-453,211	303,554	-0,077	-0,103
-452,197	56,335	-0,147	0,104
-451,182	-200,000	0,091	-0,000
-450,168	-142,966	0,083	0,006
-449,153	-200,000	-0,011	-0,038
-448,138	261,182	-0,091	-0,115
-447,124	-191,595	-0,110	0,001
-446,109	150,713	0,021	0,021
-445,095	191,736	0,004	-0,004
-444,080	-200,000	0,003	0,066
-443,065	2,139	-0,050	-0,026
-442,051	127,019	0,049	0,045
-441,036	7,046	-0,141	0,076
-440,022	175,255	0,121	0,128
-439,007	-14,777	0,037	0,017
-437,992	-32,146	0,106	-0,043
-436,978	30,047	-0,087	-0,054
-435,963	-126,427	0,061	-0,007
-434,949	590,866	-0,024	0,042
-433,934	-200,000	-0,046	-0,176
-432,919	616,189	-0,065	0,119
-431,905	-200,000	-0,012	0,068
-430,890	-12,046	0,069	0,033
-429,876	202,905	0,071	-0,080
-428,861	30,749	0,105	-0,065
-427,846	800,000	-0,010	0,030
-426,832	-200,000	-0,013	0,058
-425,817	-90,926	-0,091	0,019
-424,803	-8,504	-0,104	-0,051
-423,788	-118,961	-0,063	-0,008
-422,773	-200,000	0,011	-0,055
-421,759	800,000	0,009	0,020
-420,744	280,122	0,053	0,070
-419,730	375,826	0,031	0,046
-418,715	-200,000	-0,016	-0,090
-417,701	-67,188	-0,089	-0,025
-416,686	800,000	-0,019	0,054
-415,671	-110,981	-0,061	-0,009
-414,657	-200,000	0,016	0,112
-413,642	315,806	0,047	0,065
-412,628	800,000	0,016	0,043
-411,613	9,015	-0,184	-0,101
-410,598	-117,532	0,081	-0,011
-409,584	-70,211	0,179	0,049
-408,569	-100,806	0,046	-0,008
-407,555	555,929	0,013	-0,023
-406,540	95,078	0,070	0,058
-405,525	71,829	-0,056	0,042
-404,511	-48,056	-0,081	0,028
-403,496	305,366	0,069	-0,094
-402,482	-121,105	0,087	-0,010
-401,467	800,000	-0,022	-0,059
-400,452	-200,000	0,019	0,091
-399,438	-41,003	-0,103	-0,038
-398,423	-200,000	-0,010	-0,059
-397,409	130,819	0,029	-0,027
-396,394	236,629	-0,033	0,039
-395,379	-200,000	0,010	0,089
-394,365	261,244	0,024	0,030
-393,350	-64,295	0,229	-0,067
-392,336	613,988	-0,042	0,077
-391,321	-200,000	-0,010	0,045
-390,306	480,461	-0,102	-0,169
-389,292	114,535	-0,076	-0,067
-388,277	620,227	-0,027	-0,049
-387,263	238,618	0,002	-0,003
-386,248	-19,483	0,078	-0,035
-385,233	-10,969	-0,055	-0,026
-384,219	-200,000	0,014	0,061
-383,204	12,014	-0,090	-0,050
-382,190	-77,789	-0,121	-0,030
-381,175	-9,362	-0,082	-0,039
-380,160	-43,952	0,138	0,050
-379,146	67,015	0,030	-0,022
-378,131	-22,580	0,099	0,043
-377,117	-200,000	0,011	0,074
-376,102	-45,389	-0,071	0,025
-375,088	88,952	-0,166	-0,134
-374,073	164,348	-0,118	-0,121
-373,058	-56,360	0,196	0,063
-372,044	-200,000	0,008	0,107
-371,029	101,938	0,191	0,162
-370,015	-55,232	0,087	-0,028
-369,000	464,610	-0,091	-0,149
-367,985	-22,794	-0,013	0,006
-366,971	206,282	-0,053	0,060
-365,956	15,566	0,137	0,078
-364,942	118,117	0,022	-0,019
-363,927	-80,663	0,194	0,046
-362,912	355,851	-0,103	0,148
-361,898	-15,161	-0,053	0,025
-360,883	146,613	0,039	-0,038
-359,869	-200,000	0,011	-0,092
-358,854	800,000	-0,035	0,080
-357,839	62,582	-0,076	0,055
-356,825	800,000	0,034	0,106
-355,810	-200,000	0,007	-0,046
-354,796	325,350	-0,070	0,097
-353,781	800,000	-0,077	-0,165
-352,766	800,000	0,071	0,190
-351,752	-54,607	0,107	0,035
-350,737	-200,000	0,017	0,249
-349,723	-200,000	0,008	0,114
-348,708	-200,000	-0,003	0,053
-347,693	750,097	0,065	0,128
-346,679	-54,845	-0,071	0,023
-345,664	352,579	-0,045	0,065
-344,650	-141,760	0,180	-0,013
-343,635	-132,534	0,054	0,005
-342,620	-64,946	0,177	-0,051
-341,606	-85,412	0,048	0,011
-340,591	-88,778	-0,082	0,018
-339,577	800,000	-0,027	-0,069
-338,562	710,405	-0,041	0,080
-337,548	0,672	0,038	-0,019
-336,533	800,000	0,020	0,042
-335,518	-89,848	-0,062	0,013
-334,504	-200,000	0,020	-0,085
-333,489	3,689	-0,015	0,008
-332,475	-200,000	0,005	-0,138
-331,460	303,635	-0,054	0,072
-330,445	800,000	-0,024	0,050
-329,431	-200,000	0,009	0,057
-328,416	299,272	0,132	0,176
-327,402	-200,000	0,024	0,155
-326,387	36,156	0,061	0,039
-325,372	467,967	-0,054	-0,089
-324,358	800,000	0,057	-0,132
-323,343	231,256	-0,019	-0,023
-322,329	713,270	0,063	0,121
-321,314	-200,000	0,055	0,000
-320,299	800,000	0,043	0,099
-319,285	800,000	0,038	0,091
-318,270	-200,000	-0,017	0,135
-317,256	800,000	0,074	-0,168
-316,241	800,000	0,046	-0,099
-315,226	43,300	0,180	0,119
-314,212	-2,438	0,074	-0,038
-313,197	44,059	0,059	0,039
-312,183	-63,858	-0,059	-0,017
-311,168	-105,286	0,075	-0,012
-310,153	-200,000	-0,013	-0,097
-309,139	-200,000	-0,013	0,062
-308,124	0,070	0,107	-0,055
-307,110	511,977	0,070	0,119
-306,095	-178,174	-0,030	0,000
-305,080	-14,640	0,128	-0,059
-304,066	93,498	-0,094	0,077
-303,051	599,788	-0,073	0,131
-302,037	699,223	0,055	-0,106
-301,022	-38,615	-0,065	-0,025
-300,008	-20,865	0,049	0,022
-298,993	800,000	0,022	0,053
-297,978	-17,008	0,074	0,034
-296,964	-107,665	-0,058	0,009
-295,949	67,845	0,065	-0,048
-294,935	-200,000	0,001	0,057
-293,920	800,000	0,018	0,045
-292,905	602,029	0,030	0,054
-291,891	-143,061	0,199	-0,014
-290,876	175,392	0,074	0,077
-289,862	81,539	-0,101	-0,079
-288,847	143,982	0,143	-0,138
-287,832	800,000	-0,010	-0,023
-286,818	160,589	-0,093	-0,094
-285,803	-200,000	0,016	0,155
-284,789	-200,000	-0,004	0,097
-283,774	130,260	-0,134	0,124
-282,759	-22,487	-0,116	0,050
-281,745	510,232	0,047	-0,078
-280,730	42,459	-0,047	0,031
-279,716	-200,000	0,004	-0,039
-278,701	-71,226	0,063	-0,017
-277,686	63,539	0,055	-0,039
-276,672	-10,747	0,048	-0,023
-275,657	258,957	0,006	0,008
-274,643	-82,336	-0,105	-0,024
-273,628	-200,000	0,007	0,084
-272,613	-112,099	0,098	-0,014
-271,599	-200,000	-0,001	0,089
-270,584	59,374	-0,044	0,031
-269,570	-52,708	0,136	0,045
-268,555	372,046	-0,031	0,046
-267,540	422,488	0,018	-0,028
-266,526	-200,000	0,022	0,070
-265,511	-200,000	0,038	-0,131
-264,497	800,000	0,076	-0,181
-263,482	800,000	0,030	0,065
-262,467	118,128	-0,016	0,014
-261,453	126,490	-0,057	0,052
-260,438	800,000	0,068	-0,167
-259,424	142,804	-0,101	0,097
-258,409	-26,751	0,148	0,062
-257,395	800,000	0,020	-0,042
-256,380	-47,399	0,136	0,047
-255,365	800,000	-0,020	0,052
-254,351	-104,105	0,175	0,029
-253,336	-200,000	-0,008	-0,068
-252,322	337,358	-0,064	-0,090
-251,307	-35,700	0,120	0,047
-250,292	-192,760	0,030	-0,000
-249,278	156,399	-0,022	0,022
-248,263	-115,640	0,137	0,018
-247,249	-200,000	0,002	-0,028
-246,234	-197,610	-0,145	-0,001
-245,219	-30,369	-0,143	-0,058
-244,205	-28,106	0,070	-0,029
-243,190	178,917	-0,059	-0,062
-242,176	114,318	0,108	-0,095
-241,161	27,013	0,056	0,034
-240,146	117,104	-0,077	0,069
-239,132	-93,407	0,039	-0,008
-238,117	-200,000	0,006	-0,069
-237,103	-200,000	-0,032	-0,115
-236,088	-135,755	-0,085	0,007
-235,073	-85,082	0,086	0,019
-234,059	-74,246	-0,182	-0,047
-233,044	-129,084	-0,068	-0,007
-232,030	515,020	-0,004	0,007
-231,015	800,000	0,016	0,040
-230,000	368,340	0,071	-0,103
-228,986	-200,000	-0,003	-0,065
-227,971	-137,958	0,079	0,006
-226,957	-156,206	-0,067	0,003
-225,942	-200,000	0,008	0,111
-224,927	800,000	0,055	0,133
-223,913	-99,501	-0,159	-0,028
-222,898	552,515	0,084	0,146
-221,884	-200,000	0,001	-0,055
-220,869	-200,000	-0,023	-0,078
-219,855	-74,224	0,089	0,023
-218,840	-200,000	-0,036	0,269
-217,825	222,391	-0,041	-0,048
-216,811	-111,909	-0,067	0,010
-215,796	800,000	0,071	0,157
-214,782	-115,493	-0,057	-0,008
-213,767	148,939	-0,037	0,036
-212,752	51,742	-0,037	0,025
-211,738	-88,527	0,038	0,008
-210,723	522,864	-0,022	0,037
-209,709	-200,000	0,086	0,000
-208,694	800,000	-0,017	0,037
-207,679	241,648	-0,097	-0,117
-206,665	-200,000	-0,005	0,130
-205,650	-133,901	0,061	0,005
-204,636	800,000	0,025	0,064
-203,621	-182,194	-0,154	-0,002
-202,606	32,594	-0,048	0,030
-201,592	160,585	0,056	0,056
-200,577	440,614	-0,014	0,023
-199,563	-1,891	0,036	0,018
-198,548	58,983	0,107	0,076
-197,533	-200,000	-0,071	-0,000
-196,519	-47,000	0,067	-0,024
-195,504	-50,804	-0,234	0,079
-194,490	461,875	0,140	-0,226
-193,475	-153,308	-0,050	-0,002
-192,460	-80,203	0,104	-0,025
-191,446	442,951	-0,046	-0,073
-190,431	-200,000	-0,016	0,100
-189,417	-120,583	-0,111	-0,013
-188,402	121,627	0,013	0,012
-187,387	518,158	0,067	-0,113
-186,373	800,000	-0,036	-0,107
-185,358	800,000	0,039	0,083
-184,344	800,000	0,031	0,096
-183,329	350,950	0,031	0,044
-182,315	191,866	0,084	0,091
-181,300	-199,553	-0,024	0,000
-180,285	91,194	0,086	0,070
-179,271	-173,957	-0,032	0,001
-178,256	-3,353	0,073	-0,036
-177,242	-200,000	0,009	-0,215
-176,227	-43,028	0,070	0,026
-175,212	122,237	0,122	0,109
-174,198	321,432	-0,011	0,015
-173,183	206,389	-0,074	-0,083
-172,169	-160,636	0,045	0,002
-171,154	276,689	0,044	-0,056
-170,139	586,226	0,035	-0,063
-169,125	344,602	0,063	-0,089
-168,110	0,629	0,136	-0,070
-167,096	-142,663	-0,021	0,001
-166,081	-48,043	0,063	-0,022
-165,066	-48,204	-0,048	0,017
-164,052	-200,000	-0,027	-0,101
-163,037	-200,000	-0,003	0,062
-162,023	-8,949	-0,054	0,026
-161,008	34,891	0,045	0,028
-159,993	800,000	0,018	0,038
-158,979	-115,196	-0,051	-0,007
-157,964	46,197	-0,045	-0,030
-156,950	-200,000	-0,013	-0,076
-155,935	-200,000	-0,015	0,135
-154,920	-146,479	0,137	0,008
-153,906	-200,000	0,009	0,071
-152,891	14,749	0,121	-0,068
-151,877	-200,000	-0,002	-0,076
-150,862	210,868	-0,089	-0,100
-149,847	800,000	-0,042	0,098
-148,833	520,950	0,134	0,228
-147,818	373,422	0,113	0,166
-146,804	15,583	0,030	0,017
-145,789	-200,000	0,014	0,050
-144,775	-106,383	-0,131	0,021
-143,760	-55,129	-0,063	-0,020
-142,745	-200,000	-0,038	-0,144
-141,731	272,918	-0,024	0,030
-140,716	800,000	0,024	0,048
-139,702	125,210	-0,036	0,033
-138,687	-51,681	0,155	0,052
-137,672	269,007	0,051	0,064
-136,658	58,503	-0,094	-0,066
-135,643	800,000	-0,017	0,053
-134,629	800,000	-0,032	-0,098
-133,614	705,512	0,056	0,107
-132,599	-124,706	0,078	0,009
-131,585	-114,224	0,072	0,010
-130,570	-106,977	-0,140	0,022
-129,556	-74,573	0,121	-0,031
-128,541	-10,491	-0,052	-0,025
-127,526	203,506	0,094	-0,104
-126,512	-53,431	0,083	-0,027
-125,497	486,125	0,024	-0,040
-124,483	-200,000	0,009	0,113
-123,468	288,136	-0,046	0,060
-122,453	-10,516	-0,112	0,053
-121,439	186,227	0,093	0,100
-120,424	-120,863	0,072	0,009
