DTS Sentinel unit serial number:	SN410029Multiplexer serial number:	ORYXHardware model number:	OX2-SRSoftware version number:	ORYX F/W v4,00 Oryx Data Collector v3.7.2.0data status	okinstallation	B6 Nyhavnadifferential loss correction	single-endedforward channel	channel 2reverse channel	N/Adate	2023/12/10time	10:00:08forward acquisition time	300,00reverse acquisition time	0,00gamma	499,1914k internal	0,3123k external	0,3123temperature offset calibration	1,0000default loss term (dB/km)	0,3820temperature slope calibration	1,0000multiplexer offset coefficient	1,0000multiplexer slope coefficient	1,0000fibre end	0,00T internal ref (°C)	22,56T ext. ref 1 (°C)	6,38T ext. ref 2 (°C)	6,37length (m)	temperature (°C)	Stokes	anti-Stokes-744,400	-200,000	0,012	0,101
-743,385	-76,208	-0,265	0,069
-742,371	192,276	0,063	0,071
-741,356	34,891	-0,100	0,065
-740,342	35,503	0,056	-0,036
-739,327	800,000	-0,112	0,273
-738,312	148,026	-0,059	-0,060
-737,298	-11,977	-0,199	0,097
-736,283	800,000	-0,041	-0,102
-735,269	81,136	-0,200	0,161
-734,254	5,436	0,140	-0,077
-733,239	-67,935	-0,402	-0,116
-732,225	1,483	0,048	-0,026
-731,210	146,142	0,065	0,065
-730,196	-200,000	-0,002	0,033
-729,181	-29,158	0,039	-0,016
-728,167	-44,141	0,088	0,033
-727,152	93,884	0,122	-0,103
-726,137	44,269	-0,019	-0,013
-725,123	4,042	-0,103	0,056
-724,108	-155,997	-0,068	0,003
-723,094	-200,000	-0,001	-0,070
-722,079	-46,510	0,143	-0,052
-721,064	-74,139	0,119	0,032
-720,050	-86,925	0,114	0,026
-719,035	608,418	-0,039	0,073
-718,021	-31,724	-0,076	-0,032
-717,006	-53,382	0,086	-0,029
-715,991	346,357	-0,044	-0,064
-714,977	-85,984	-0,088	0,020
-713,962	-200,000	0,015	-0,088
-712,948	100,882	0,060	-0,052
-711,933	84,838	-0,093	0,076
-710,918	-33,819	0,110	-0,045
-709,904	-102,688	-0,138	0,024
-708,889	-200,000	-0,095	0,000
-707,875	130,498	-0,044	-0,042
-706,860	37,238	-0,019	-0,013
-705,845	263,301	-0,015	-0,020
-704,831	-200,000	0,013	-0,152
-703,816	-84,020	-0,074	0,017
-702,802	-200,000	-0,039	-0,145
-701,787	-10,682	-0,182	-0,089
-700,772	-200,000	0,027	0,107
-699,758	-106,163	-0,039	0,006
-698,743	-107,872	0,131	0,021
-697,729	-27,114	0,049	0,021
-696,714	-103,441	0,032	-0,006
-695,699	349,155	0,034	0,049
-694,685	-84,726	-0,141	0,033
-693,670	-200,000	-0,020	-0,087
-692,656	800,000	0,023	0,072
-691,641	689,207	-0,068	0,133
-690,627	-200,000	0,012	0,110
-689,612	-200,000	0,026	0,151
-688,597	71,713	-0,038	0,030
-687,583	800,000	-0,009	0,025
-686,568	-200,000	-0,045	-0,170
-685,554	-200,000	0,003	-0,092
-684,539	443,052	-0,071	-0,116
-683,524	-63,100	-0,028	-0,009
-682,510	-132,625	0,068	0,006
-681,495	-200,000	-0,026	-0,165
-680,481	152,302	0,045	-0,046
-679,466	518,045	0,043	0,076
-678,451	-121,345	-0,142	-0,017
-677,437	163,153	-0,065	0,068
-676,422	294,672	0,057	0,077
-675,408	-34,704	-0,058	0,023
-674,393	-200,000	0,005	-0,028
-673,378	200,653	-0,081	0,093
-672,364	341,581	-0,030	-0,044
-671,349	800,000	-0,048	-0,150
-670,335	-200,000	-0,003	0,023
-669,320	554,590	0,095	0,170
-668,305	-124,258	0,102	0,012
-667,291	328,791	0,066	0,095
-666,276	-62,351	-0,061	0,019
-665,262	-147,623	-0,100	0,006
-664,247	5,365	-0,109	0,059
-663,232	800,000	0,032	0,071
-662,218	-200,000	0,125	0,000
-661,203	109,679	0,038	0,034
-660,189	-200,000	0,005	0,069
-659,174	800,000	-0,049	-0,129
-658,159	-124,913	-0,118	-0,013
-657,145	-200,000	0,002	0,016
-656,130	-11,100	0,108	0,053
-655,116	-200,000	0,009	0,070
-654,101	39,101	-0,038	0,025
-653,086	335,073	0,064	0,092
-652,072	79,188	0,064	0,051
-651,057	146,091	-0,090	0,090
-650,043	-29,814	-0,074	-0,031
-649,028	-200,000	0,014	0,073
-648,014	554,935	-0,044	-0,079
-646,999	-190,620	0,012	0,000
-645,984	250,805	0,076	-0,096
-644,970	-200,000	0,009	0,041
-643,955	-9,764	-0,068	0,034
-642,941	252,487	-0,114	-0,145
-641,926	302,357	0,047	-0,065
-640,911	142,910	-0,015	-0,015
-639,897	800,000	0,051	0,118
-638,882	264,712	-0,091	-0,118
-637,868	118,742	0,077	-0,071
-636,853	-200,000	0,013	-0,257
-635,838	-200,000	-0,019	0,156
-634,824	377,403	-0,043	0,066
-633,809	188,601	-0,034	-0,037
-632,795	-23,690	0,106	-0,047
-631,780	800,000	0,037	-0,108
-630,765	-89,950	0,090	-0,019
-629,751	181,397	-0,058	-0,063
-628,736	-200,000	-0,004	-0,038
-627,722	265,059	0,096	-0,124
-626,707	-31,134	-0,038	0,016
-625,692	-200,000	0,000	0,049
-624,678	36,859	-0,068	-0,045
-623,663	-200,000	-0,002	0,071
-622,649	-79,399	-0,065	-0,016
-621,634	-200,000	-0,006	-0,161
-620,619	-76,300	-0,051	0,013
-619,605	-34,518	0,076	-0,031
-618,590	800,000	-0,048	0,104
-617,576	107,952	-0,069	0,061
-616,561	47,761	-0,043	0,029
-615,546	328,858	-0,089	-0,128
-614,532	-200,000	-0,020	0,067
-613,517	174,454	-0,045	0,048
-612,503	-53,848	0,051	0,017
-611,488	19,372	0,068	-0,040
-610,474	-10,184	0,083	-0,041
-609,459	-200,000	0,014	0,084
-608,444	800,000	-0,017	-0,035
-607,430	-128,266	-0,008	0,001
-606,415	-200,000	0,033	-0,148
-605,401	-200,000	-0,039	0,177
-604,386	-200,000	-0,034	0,117
-603,371	-200,000	0,003	-0,051
-602,357	800,000	0,009	0,023
-601,342	-55,689	-0,194	0,064
-600,328	-59,565	0,025	-0,008
-599,313	26,272	-0,099	-0,061
-598,298	196,851	0,083	-0,094
-597,284	-200,000	0,008	-0,080
-596,269	75,623	0,129	0,101
-595,255	-103,544	0,164	0,028
-594,240	-36,118	-0,034	0,014
-593,225	-35,667	0,134	-0,053
-592,211	174,451	-0,057	0,061
-591,196	-185,384	-0,095	-0,001
-590,182	-10,081	0,026	-0,013
-589,167	800,000	0,086	0,200
-588,152	260,274	0,081	-0,104
-587,138	311,997	-0,072	0,101
-586,123	150,792	-0,116	-0,117
-585,109	85,496	-0,069	-0,056
-584,094	800,000	-0,037	-0,080
-583,079	747,202	-0,041	-0,081
-582,065	-18,711	-0,054	0,025
-581,050	-200,000	0,014	0,101
-580,036	-172,513	-0,061	-0,001
-579,021	-110,285	-0,100	-0,015
-578,006	-67,825	0,080	-0,023
-576,992	-200,000	0,025	-0,110
-575,977	-200,000	-0,035	0,242
-574,963	259,452	0,177	0,227
-573,948	-169,292	-0,061	0,002
-572,934	-115,059	0,077	0,011
-571,919	54,170	-0,093	0,066
-570,904	-54,544	0,076	0,025
-569,890	-200,000	0,003	-0,105
-568,875	10,362	-0,027	0,015
-567,861	-200,000	-0,007	0,066
-566,846	-112,821	-0,040	0,006
-565,831	91,021	0,045	-0,037
-564,817	69,555	-0,191	-0,146
-563,802	800,000	-0,072	-0,208
-562,788	254,269	0,050	-0,064
-561,773	-200,000	-0,020	-0,140
-560,758	-200,000	0,003	-0,095
-559,744	-76,246	0,076	-0,020
-558,729	155,108	-0,084	0,085
-557,715	-96,992	-0,009	-0,002
-556,700	800,000	-0,036	-0,110
-555,685	-200,000	0,012	-0,086
-554,671	800,000	-0,033	-0,099
-553,656	800,000	-0,036	0,080
-552,642	-14,372	0,044	0,021
-551,627	-3,589	-0,103	-0,053
-550,612	226,537	-0,085	-0,102
-549,598	-104,379	0,042	-0,007
-548,583	637,336	0,072	0,136
-547,569	610,366	-0,032	0,060
-546,554	-21,512	-0,085	0,038
-545,539	800,000	-0,046	-0,105
-544,525	44,432	-0,110	0,075
-543,510	-107,952	-0,102	0,016
-542,496	317,785	0,004	-0,005
-541,481	-127,290	-0,057	0,006
-540,466	-78,371	-0,079	-0,020
-539,452	100,476	-0,055	-0,047
-538,437	-86,648	0,050	-0,011
-537,423	-111,868	0,058	0,009
-536,408	-200,000	0,003	-0,059
-535,393	-105,949	-0,116	-0,019
-534,379	-147,453	0,065	0,004
-533,364	800,000	-0,058	0,137
-532,350	474,994	0,040	0,067
-531,335	511,604	-0,055	-0,095
-530,321	-72,946	-0,131	0,035
-529,306	217,970	-0,089	0,105
-528,291	-200,000	0,002	-0,061
-527,277	-200,000	0,005	0,070
-526,262	-117,198	-0,119	-0,016
-525,248	-200,000	0,018	-0,090
-524,233	91,043	0,011	0,009
-523,218	800,000	0,008	0,018
-522,204	178,319	0,052	0,056
-521,189	-96,036	-0,134	-0,026
-520,175	-97,364	-0,063	-0,012
-519,160	-200,000	0,037	-0,184
-518,145	612,459	-0,044	-0,083
-517,131	800,000	0,018	-0,056
-516,116	-200,000	0,023	0,081
-515,102	-200,000	-0,020	-0,098
-514,087	271,351	0,029	0,038
-513,072	64,103	-0,041	-0,030
-512,058	-200,000	-0,027	-0,092
-511,043	800,000	0,048	-0,103
-510,029	-108,205	-0,065	-0,010
-509,014	606,589	0,049	0,091
-507,999	428,895	-0,047	0,076
-506,985	-2,002	-0,075	-0,039
-505,970	-79,563	0,063	0,015
-504,956	-200,000	-0,004	-0,043
-503,941	-200,000	0,011	0,086
-502,926	66,863	0,114	-0,086
-501,912	-148,786	0,085	0,005
-500,897	-200,000	0,011	0,054
-499,883	253,015	-0,039	0,049
-498,868	-200,000	-0,024	-0,096
-497,853	140,429	0,123	-0,120
-496,839	-94,100	-0,061	-0,012
-495,824	-39,678	0,168	0,065
-494,810	-200,000	0,005	-0,020
-493,795	-11,746	0,040	-0,019
-492,781	-43,139	-0,090	-0,034
-491,766	385,001	-0,049	-0,074
-490,751	-200,000	0,018	-0,065
-489,737	-86,185	0,053	0,012
-488,722	-52,043	0,083	-0,028
-487,708	-92,989	0,109	0,022
-486,693	56,766	0,044	-0,031
-485,678	-173,291	0,023	-0,001
-484,664	-94,394	0,095	0,019
-483,649	65,447	-0,038	-0,028
-482,635	800,000	-0,026	-0,076
-481,620	-141,982	-0,024	0,002
-480,605	-111,865	-0,067	0,010
-479,591	594,904	-0,010	-0,018
-478,576	-61,161	0,074	0,023
-477,562	-156,935	-0,104	-0,005
-476,547	-128,502	0,105	0,011
-475,532	800,000	-0,053	0,133
-474,518	166,387	0,077	0,080
-473,503	800,000	0,042	0,101
-472,489	800,000	0,033	-0,081
-471,474	-200,000	-0,004	0,108
-470,459	-115,003	-0,010	0,001
-469,445	153,550	-0,045	0,045
-468,430	58,210	-0,050	0,036
-467,416	300,424	0,062	0,085
-466,401	103,165	-0,035	0,031
-465,386	-54,506	0,053	-0,018
-464,372	-200,000	0,036	-0,121
-463,357	448,622	-0,097	-0,158
-462,343	24,688	0,015	-0,009
-461,328	-200,000	-0,007	0,133
-460,313	-98,283	-0,072	0,014
-459,299	-18,128	0,066	0,030
-458,284	28,198	0,104	-0,065
-457,270	674,418	-0,029	-0,056
-456,255	800,000	-0,048	-0,150
-455,241	-200,000	-0,012	-0,159
-454,226	154,400	0,091	-0,092
-453,211	-186,835	0,079	0,001
-452,197	-200,000	-0,012	0,055
-451,182	-92,798	0,072	0,015
-450,168	800,000	-0,067	0,146
-449,153	-200,000	-0,007	-0,029
-448,138	-200,000	0,010	0,065
-447,124	436,543	-0,038	-0,061
-446,109	80,800	-0,036	0,029
-445,095	350,502	-0,047	0,069
-444,080	547,430	-0,051	0,091
-443,065	-200,000	0,022	0,090
-442,051	800,000	0,017	-0,050
-441,036	188,599	-0,098	0,108
-440,022	91,648	-0,085	-0,070
-439,007	265,530	-0,011	0,015
-437,992	-134,502	-0,042	-0,004
-436,978	-75,279	0,077	0,020
-435,963	124,016	-0,043	-0,040
-434,949	-200,000	-0,008	0,062
-433,934	-200,000	0,015	0,107
-432,919	9,442	-0,111	0,062
-431,905	277,493	0,032	-0,042
-430,890	-56,147	0,035	0,011
-429,876	20,453	0,030	-0,018
-428,861	-200,000	0,006	0,155
-427,846	94,596	0,099	-0,083
-426,832	540,375	-0,021	-0,037
-425,817	62,972	-0,038	-0,028
-424,803	-60,227	-0,083	0,026
-423,788	-200,000	0,010	0,210
-422,773	-30,434	0,080	-0,033
-421,759	-200,000	0,032	0,108
-420,744	496,661	-0,040	0,069
-419,730	-200,000	0,020	-0,079
-418,715	-144,848	-0,217	-0,014
-417,701	-200,000	-0,011	0,130
-416,686	-61,775	0,095	0,029
-415,671	123,593	0,071	-0,066
-414,657	207,116	-0,074	-0,085
-413,642	28,279	-0,040	0,025
-412,628	472,329	0,057	-0,095
-411,613	181,900	-0,040	-0,043
-410,598	-200,000	-0,005	0,069
-409,584	-158,372	-0,097	-0,004
-408,569	800,000	0,005	-0,015
-407,555	-101,866	0,173	0,030
-406,540	49,057	0,052	-0,036
-405,525	-69,544	-0,100	-0,028
-404,511	-200,000	0,000	-0,096
-403,496	800,000	0,035	0,078
-402,482	-126,049	0,052	-0,006
-401,467	477,035	0,060	0,101
-400,452	-105,794	0,115	-0,019
-399,438	-51,729	-0,047	0,016
-398,423	-139,491	-0,126	-0,010
-397,409	800,000	0,044	-0,126
-396,394	800,000	0,044	-0,134
-395,379	-200,000	-0,019	-0,079
-394,365	95,257	-0,054	0,045
-393,350	753,152	0,071	0,142
-392,336	800,000	0,042	0,102
-391,321	21,750	-0,111	-0,066
-390,306	601,950	0,063	-0,115
-389,292	58,560	0,034	0,024
-388,277	-137,570	0,054	-0,004
-387,263	800,000	0,023	-0,048
-386,248	-200,000	-0,035	0,128
-385,233	800,000	-0,016	0,038
-384,219	-200,000	0,000	0,095
-383,204	-44,385	0,057	-0,021
-382,190	-200,000	0,011	-0,219
-381,175	800,000	-0,037	0,087
-380,160	-100,117	0,122	0,022
-379,146	149,942	-0,058	0,058
-378,131	252,416	0,072	0,090
-377,117	-200,000	-0,002	-0,019
-376,102	89,929	-0,120	-0,098
-375,088	401,589	-0,042	-0,066
-374,073	800,000	0,037	-0,086
-373,058	-200,000	-0,005	0,069
-372,044	70,122	0,055	0,042
-371,029	-200,000	-0,003	0,141
-370,015	800,000	0,027	-0,062
-369,000	-72,873	0,093	0,025
-367,985	-200,000	0,000	-0,071
-366,971	-133,915	-0,050	-0,005
-365,956	-200,000	-0,003	-0,046
-364,942	-139,841	0,134	-0,010
-363,927	800,000	0,059	0,153
-362,912	159,821	-0,130	0,133
-361,898	192,961	-0,013	0,015
-360,883	800,000	-0,079	-0,164
-359,869	42,455	-0,178	0,119
-358,854	209,493	-0,059	-0,068
-357,839	52,607	0,032	0,022
-356,825	638,434	0,023	-0,043
-355,810	800,000	-0,013	-0,039
-354,796	-83,650	-0,042	0,010
-353,781	-106,136	-0,150	0,025
-352,766	800,000	0,039	0,084
-351,752	152,068	0,062	0,063
-350,737	-200,000	0,037	0,185
-349,723	-101,752	0,062	0,011
-348,708	390,464	0,102	-0,155
-347,693	728,455	-0,045	-0,089
-346,679	800,000	0,053	-0,121
-345,664	289,192	0,105	0,140
-344,650	605,955	-0,072	0,132
-343,635	-188,171	0,091	-0,001
-342,620	12,015	0,025	-0,014
-341,606	32,413	-0,064	-0,040
-340,591	-200,000	-0,015	-0,107
-339,577	142,052	0,110	0,107
-338,562	-200,000	0,001	-0,107
-337,548	216,002	0,080	0,093
-336,533	85,913	0,063	0,051
-335,518	800,000	0,081	0,176
-334,504	-200,000	-0,015	0,099
-333,489	242,449	0,024	-0,030
-332,475	-55,660	-0,114	0,037
-331,460	-200,000	0,011	0,062
-330,445	800,000	0,061	0,138
-329,431	111,816	-0,065	-0,058
-328,416	-200,000	0,037	0,143
-327,402	800,000	-0,028	0,071
-326,387	-28,600	0,046	0,019
-325,372	800,000	0,053	0,157
-324,358	-132,844	0,103	-0,009
-323,343	-40,617	-0,177	-0,067
-322,329	633,506	0,061	0,114
-321,314	344,459	0,076	0,110
-320,299	99,863	0,128	0,108
-319,285	-200,000	0,050	0,176
-318,270	354,460	0,076	0,111
-317,256	-173,285	0,056	0,001
-316,241	36,485	0,135	0,087
-315,226	800,000	0,011	0,027
-314,212	-200,000	0,012	0,082
-313,197	-129,586	0,087	-0,009
-312,183	782,783	0,034	0,069
-311,168	604,813	0,022	0,040
-310,153	77,903	-0,002	0,002
-309,139	800,000	0,034	-0,077
-308,124	-200,000	-0,008	-0,060
-307,110	-20,700	0,163	0,073
-306,095	549,944	-0,070	-0,124
-305,080	126,136	0,042	-0,039
-304,066	23,223	-0,150	-0,090
-303,051	-104,735	-0,085	-0,014
-302,037	-200,000	-0,004	0,048
-301,022	302,767	0,026	0,036
-300,008	-10,290	-0,085	-0,041
-298,993	-48,860	0,080	0,028
-297,978	71,659	0,126	-0,095
-296,964	-126,654	-0,094	0,010
-295,949	-200,000	0,013	-0,137
-294,935	262,034	-0,058	-0,074
-293,920	117,675	-0,076	0,069
-292,905	-200,000	-0,003	-0,052
-291,891	200,445	0,093	-0,105
-290,876	18,103	0,095	0,055
-289,862	679,909	-0,054	-0,103
-288,847	-33,915	-0,131	0,053
-287,832	400,418	-0,074	-0,114
-286,818	526,761	0,043	-0,074
-285,803	-6,669	0,050	0,025
-284,789	129,115	0,036	0,034
-283,774	-200,000	0,005	0,091
-282,759	439,217	0,072	-0,116
-281,745	-56,980	-0,051	0,016
-280,730	588,981	0,012	-0,021
-279,716	27,682	-0,090	-0,055
-278,701	-126,439	0,094	0,010
-277,686	800,000	0,056	0,144
-276,672	-76,979	0,095	0,024
-275,657	-200,000	-0,036	0,120
-274,643	-200,000	0,020	-0,073
-273,628	227,200	-0,080	-0,096
-272,613	800,000	0,020	-0,062
-271,599	-66,964	0,145	0,042
-270,584	-200,000	0,016	0,067
-269,570	70,695	0,060	0,045
-268,555	152,420	-0,058	-0,058
-267,540	-200,000	0,023	0,093
-266,526	46,550	-0,126	0,085
-265,511	-200,000	-0,033	-0,157
-264,497	-200,000	0,004	-0,025
-263,482	6,482	0,068	-0,037
-262,467	-179,258	0,063	0,001
-261,453	53,910	-0,053	0,037
-260,438	54,405	0,043	-0,030
-259,424	800,000	-0,061	-0,139
-258,409	-200,000	-0,002	0,053
-257,395	297,594	-0,067	0,090
-256,380	-200,000	0,012	-0,052
-255,365	-200,000	-0,014	0,122
-254,351	-89,855	-0,098	0,021
-253,336	5,734	0,052	-0,028
-252,322	193,533	-0,078	-0,086
-251,307	237,283	-0,051	-0,062
-250,292	800,000	0,026	0,059
-249,278	-200,000	0,023	0,075
-248,263	-200,000	0,004	0,038
-247,249	-139,546	0,058	0,004
-246,234	76,745	-0,006	0,005
-245,219	-138,381	-0,061	-0,005
-244,205	76,238	-0,100	-0,077
-243,190	454,384	0,062	0,100
-242,176	471,222	0,066	-0,108
-241,161	800,000	-0,011	-0,033
-240,146	800,000	-0,011	0,030
-239,132	-190,777	0,084	-0,001
-238,117	-200,000	-0,011	-0,093
-237,103	800,000	0,066	-0,172
-236,088	438,288	-0,082	0,131
-235,073	-119,003	0,126	0,016
-234,059	134,172	0,045	0,042
-233,044	-200,000	-0,010	0,162
-232,030	-119,747	-0,048	0,006
-231,015	-200,000	-0,010	-0,070
-230,000	3,285	-0,064	-0,034
-228,986	-3,380	0,177	0,090
-227,971	433,130	-0,046	0,074
-226,957	55,721	0,042	0,029
-225,942	27,492	0,146	-0,090
-224,927	273,840	-0,015	0,020
-223,913	60,745	-0,107	0,077
-222,898	-21,240	-0,155	-0,069
-221,884	-66,442	-0,070	0,020
-220,869	71,559	-0,078	0,059
-219,855	-200,000	-0,000	0,100
-218,840	27,494	0,164	0,101
-217,825	-17,571	-0,156	-0,071
-216,811	290,632	0,019	-0,026
-215,796	800,000	-0,034	-0,076
-214,782	800,000	-0,047	-0,097
-213,767	289,427	-0,089	0,118
-212,752	-1,297	0,075	-0,039
-211,738	-200,000	0,003	-0,113
-210,723	800,000	-0,022	0,055
-209,709	-200,000	-0,010	0,109
-208,694	80,546	-0,090	0,071
-207,679	800,000	0,042	-0,126
-206,665	-200,000	0,030	0,110
-205,650	227,886	-0,027	-0,032
-204,636	60,949	0,043	0,031
-203,621	631,954	0,100	-0,185
-202,606	-103,457	-0,120	-0,020
-201,592	-22,471	-0,061	-0,027
-200,577	167,780	-0,051	-0,053
-199,563	19,574	0,040	0,023
-198,548	108,934	0,147	0,128
-197,533	200,030	-0,115	-0,129
-196,519	800,000	-0,012	0,030
-195,504	232,169	-0,036	0,043
-194,490	115,795	0,043	-0,038
-193,475	218,397	0,064	-0,075
-192,460	458,431	-0,064	0,105
-191,446	52,016	0,086	-0,060
-190,431	800,000	-0,022	0,050
-189,417	800,000	0,023	0,069
-188,402	-200,000	-0,012	-0,154
-187,387	8,834	-0,140	0,077
-186,373	-91,585	-0,118	-0,024
-185,358	74,066	0,104	0,080
-184,344	42,971	0,132	0,087
-183,329	-55,607	0,054	0,018
-182,315	629,469	0,044	0,082
-181,300	-200,000	0,014	-0,067
-180,285	240,928	-0,032	0,039
-179,271	3,682	-0,056	0,030
-178,256	-157,794	0,084	0,004
-177,242	-200,000	0,006	0,040
-176,227	131,708	0,112	0,105
-175,212	-160,534	0,049	0,002
-174,198	9,323	-0,151	-0,083
-173,183	-200,000	-0,003	-0,172
-172,169	800,000	0,019	0,050
-171,154	620,003	-0,076	-0,139
-170,139	401,460	0,078	0,119
-169,125	800,000	0,046	-0,131
-168,110	228,860	-0,013	-0,015
-167,096	163,428	0,011	-0,011
-166,081	201,868	-0,082	-0,093
-165,066	-200,000	-0,011	-0,127
-164,052	800,000	0,039	-0,123
-163,037	-33,830	-0,014	0,005
-162,023	43,386	-0,065	-0,043
-161,008	-167,350	-0,027	0,001
-159,993	-200,000	-0,022	0,101
-158,979	-200,000	0,011	-0,088
-157,964	81,314	-0,044	0,034
-156,950	-35,730	-0,037	-0,015
-155,935	-122,019	0,095	0,011
-154,920	64,113	0,034	-0,025
-153,906	800,000	0,044	0,098
-152,891	800,000	-0,015	-0,047
-151,877	-200,000	-0,042	-0,162
-150,862	-145,923	-0,043	0,003
-149,847	-65,325	0,055	-0,016
-148,833	-58,752	0,020	-0,006
-147,818	800,000	0,020	0,055
-146,804	374,712	0,022	-0,033
-145,789	800,000	-0,045	0,133
-144,775	-9,192	-0,055	0,027
-143,760	395,293	-0,062	-0,094
-142,745	173,490	0,020	-0,021
-141,731	800,000	0,047	-0,130
-140,716	-143,746	0,103	-0,007
-139,702	800,000	-0,020	-0,053
-138,687	6,313	-0,068	0,037
-137,672	800,000	-0,039	0,082
-136,658	473,490	-0,013	-0,022
-135,643	-200,000	-0,005	0,089
-134,629	-51,761	0,067	-0,022
-133,614	-200,000	-0,037	0,160
-132,599	-200,000	-0,012	0,197
-131,585	636,175	0,017	-0,032
-130,570	-200,000	-0,012	-0,052
-129,556	101,352	-0,088	-0,074
-128,541	-200,000	-0,012	-0,054
-127,526	527,363	-0,079	-0,136
-126,512	-146,337	0,149	0,009
-125,497	-12,145	0,043	0,020
-124,483	114,749	0,062	0,055
-123,468	117,691	0,048	-0,043
-122,453	-45,972	-0,063	0,022
-121,439	-43,493	0,038	0,014
-120,424	-86,262	-0,050	0,011
-119,410	-147,652	0,122	-0,007
