DTS Sentinel unit serial number:	SN410029Multiplexer serial number:	ORYXHardware model number:	OX2-SRSoftware version number:	ORYX F/W v4,00 Oryx Data Collector v3.7.2.0data status	okinstallation	B6 Nyhavnadifferential loss correction	single-endedforward channel	channel 2reverse channel	N/Adate	2023/12/10time	18:05:08forward acquisition time	300,00reverse acquisition time	0,00gamma	499,1914k internal	0,3122k external	0,3122temperature offset calibration	1,0000default loss term (dB/km)	0,3820temperature slope calibration	1,0000multiplexer offset coefficient	1,0000multiplexer slope coefficient	1,0000fibre end	0,00T internal ref (°C)	22,38T ext. ref 1 (°C)	5,98T ext. ref 2 (°C)	6,00length (m)	temperature (°C)	Stokes	anti-Stokes-744,400	13,690	-0,012	-0,007
-743,385	82,354	-0,192	0,155
-742,371	124,517	-0,038	-0,036
-741,356	58,550	-0,154	0,113
-740,342	392,992	0,037	0,058
-739,327	1,319	-0,255	0,136
-738,312	-200,000	0,005	-0,032
-737,298	-111,651	-0,210	0,031
-736,283	-200,000	0,018	-0,101
-735,269	-22,825	-0,229	0,103
-734,254	-200,000	-0,003	-0,129
-733,239	-20,226	-0,308	-0,141
-732,225	-200,000	-0,030	-0,156
-731,210	-157,797	-0,011	0,000
-730,196	-49,955	-0,021	0,007
-729,181	-200,000	0,014	-0,093
-728,167	-200,000	0,005	-0,024
-727,152	-200,000	-0,020	-0,082
-726,137	800,000	-0,032	-0,083
-725,123	33,358	-0,020	-0,013
-724,108	126,775	-0,036	-0,034
-723,094	112,357	-0,132	-0,119
-722,079	-192,336	-0,069	0,000
-721,064	435,906	-0,032	0,053
-720,050	800,000	-0,005	-0,014
-719,035	-156,560	-0,182	-0,008
-718,021	-70,821	0,041	-0,011
-717,006	800,000	0,044	-0,109
-715,991	130,845	-0,063	-0,060
-714,977	-50,683	0,061	-0,021
-713,962	800,000	-0,042	-0,134
-712,948	-200,000	0,010	-0,134
-711,933	-200,000	0,003	-0,059
-710,918	-23,397	-0,067	-0,030
-709,904	-200,000	0,029	-0,125
-708,889	800,000	-0,050	-0,106
-707,875	-40,815	-0,111	0,043
-706,860	800,000	0,011	0,037
-705,845	97,328	0,076	-0,065
-704,831	-200,000	-0,016	0,178
-703,816	366,569	-0,066	0,099
-702,802	176,333	-0,079	-0,085
-701,787	-54,702	-0,114	-0,038
-700,772	-200,000	-0,016	-0,111
-699,758	337,389	0,037	-0,054
-698,743	157,474	0,111	-0,114
-697,729	-47,818	0,149	0,053
-696,714	-113,501	0,065	0,009
-695,699	139,229	-0,103	-0,101
-694,685	-14,908	0,096	-0,046
-693,670	-65,927	0,138	-0,041
-692,656	36,465	-0,034	-0,022
-691,641	685,846	0,011	0,022
-690,627	-173,796	-0,113	-0,002
-689,612	-126,951	0,139	0,015
-688,597	203,701	0,077	0,089
-687,583	91,338	-0,072	-0,060
-686,568	99,518	-0,038	-0,033
-685,554	-166,223	-0,085	0,003
-684,539	-12,307	-0,036	0,018
-683,524	169,626	-0,054	0,058
-682,510	-200,000	0,002	-0,057
-681,495	-107,716	-0,161	-0,026
-680,481	-121,130	-0,063	-0,008
-679,466	-155,624	0,070	0,003
-678,451	-200,000	-0,004	-0,036
-677,437	224,933	0,025	-0,030
-676,422	-148,030	-0,021	-0,001
-675,408	-106,628	0,060	0,010
-674,393	442,808	-0,133	-0,218
-673,378	800,000	-0,014	-0,039
-672,364	73,085	-0,079	-0,061
-671,349	160,349	-0,072	-0,075
-670,335	674,706	0,044	-0,085
-669,320	230,017	0,047	-0,057
-668,305	125,655	-0,058	0,054
-667,291	800,000	-0,037	-0,096
-666,276	695,999	0,036	0,071
-665,262	800,000	-0,080	-0,222
-664,247	-99,344	-0,148	0,027
-663,232	137,187	0,075	0,073
-662,218	-150,755	0,149	-0,008
-661,203	-62,493	0,069	0,021
-660,189	-200,000	-0,027	-0,132
-659,174	-200,000	-0,031	-0,124
-658,159	-16,389	-0,169	-0,079
-657,145	35,453	-0,098	-0,064
-656,130	-120,472	-0,149	-0,019
-655,116	181,674	0,099	-0,108
-654,101	343,689	0,080	0,117
-653,086	283,174	-0,113	0,151
-652,072	54,181	0,034	-0,025
-651,057	-167,348	-0,108	0,003
-650,043	-37,884	-0,044	0,017
-649,028	349,708	-0,042	-0,061
-648,014	-116,449	0,085	0,011
-646,999	800,000	-0,019	0,058
-645,984	-9,373	-0,039	-0,019
-644,970	-200,000	0,015	-0,077
-643,955	26,610	-0,042	-0,026
-642,941	-120,777	-0,111	-0,014
-641,926	-35,430	-0,064	0,026
-640,911	464,087	0,077	-0,128
-639,897	-90,148	0,124	-0,027
-638,882	219,928	-0,098	0,116
-637,868	-200,000	-0,020	-0,069
-636,853	39,996	-0,025	0,017
-635,838	11,473	-0,023	0,013
-634,824	253,078	-0,049	-0,063
-633,809	558,707	-0,045	-0,081
-632,795	-138,448	-0,077	-0,006
-631,780	-78,816	0,023	0,006
-630,765	800,000	0,075	0,156
-629,751	-200,000	0,001	0,020
-628,736	19,898	0,038	-0,023
-627,722	-168,767	0,061	-0,002
-626,707	-200,000	0,011	-0,060
-625,692	800,000	0,025	-0,063
-624,678	-200,000	0,004	0,075
-623,663	28,314	-0,029	-0,018
-622,649	-200,000	-0,022	-0,245
-621,634	9,068	-0,078	0,043
-620,619	-87,045	-0,095	-0,021
-619,605	-92,703	0,116	0,024
-618,590	-148,316	-0,096	0,006
-617,576	-200,000	-0,023	0,147
-616,561	-18,951	0,102	-0,047
-615,546	-88,323	-0,140	-0,031
-614,532	13,374	-0,118	-0,068
-613,517	478,786	0,041	0,069
-612,503	-75,394	0,139	-0,036
-611,488	117,483	-0,019	-0,018
-610,474	-200,000	0,005	0,163
-609,459	-200,000	-0,021	0,112
-608,444	-177,216	-0,094	-0,002
-607,430	67,452	-0,082	0,062
-606,415	-200,000	-0,010	-0,088
-605,401	-107,082	0,138	-0,022
-604,386	-200,000	-0,020	0,127
-603,371	660,524	-0,073	0,139
-602,357	-53,711	0,025	-0,008
-601,342	-200,000	0,037	-0,141
-600,328	284,695	-0,006	0,008
-599,313	800,000	-0,054	-0,143
-598,298	688,058	-0,062	0,121
-597,284	514,431	0,052	0,091
-596,269	133,330	0,063	0,061
-595,255	-105,920	-0,142	-0,023
-594,240	800,000	-0,052	-0,116
-593,225	-155,789	-0,099	0,005
-592,211	-200,000	-0,022	-0,108
-591,196	764,210	0,038	0,076
-590,182	257,709	-0,090	0,115
-589,167	327,509	-0,021	-0,031
-588,152	252,111	0,067	0,084
-587,138	185,539	-0,080	0,088
-586,123	-81,585	-0,131	-0,032
-585,109	230,556	-0,071	-0,086
-584,094	-33,234	0,006	0,003
-583,079	5,685	0,067	0,037
-582,065	-146,390	0,089	-0,006
-581,050	-200,000	-0,006	0,065
-580,036	537,830	0,078	0,138
-579,021	54,532	0,045	0,032
-578,006	258,242	-0,055	-0,070
-576,992	-0,753	-0,078	0,041
-575,977	325,605	0,063	-0,089
-574,963	32,458	0,050	0,032
-573,948	-114,729	-0,155	0,022
-572,934	-49,059	0,057	0,020
-571,919	703,512	0,030	-0,059
-570,904	800,000	0,034	0,093
-569,890	800,000	-0,016	-0,045
-568,875	-79,130	0,174	0,043
-567,861	59,631	0,165	0,121
-566,846	-200,000	-0,014	0,048
-565,831	214,764	-0,098	0,115
-564,817	-80,835	-0,165	0,040
-563,802	-32,831	-0,051	-0,021
-562,788	-200,000	0,010	0,095
-561,773	99,604	0,071	0,061
-560,758	-59,198	0,045	0,014
-559,744	800,000	-0,058	-0,181
-558,729	326,676	0,032	0,046
-557,715	287,053	-0,066	-0,089
-556,700	-200,000	-0,028	-0,123
-555,685	-200,000	-0,004	-0,026
-554,671	189,657	0,076	-0,085
-553,656	-115,113	-0,022	0,003
-552,642	51,234	0,140	0,098
-551,627	28,132	-0,059	0,037
-550,612	-110,424	0,068	0,010
-549,598	229,325	-0,033	-0,040
-548,583	-63,607	0,071	0,021
-547,569	-200,000	-0,029	0,094
-546,554	91,981	-0,077	0,064
-545,539	-66,050	0,070	0,020
-544,525	-28,002	-0,108	0,046
-543,510	-200,000	0,008	-0,069
-542,496	5,813	-0,037	-0,020
-541,481	-171,075	-0,059	0,001
-540,466	295,640	0,108	-0,146
-539,452	11,359	0,038	0,022
-538,437	-200,000	0,004	0,132
-537,423	-186,753	0,146	-0,001
-536,408	39,435	0,147	-0,097
-535,393	-125,798	-0,077	0,008
-534,379	-58,220	-0,007	-0,002
-533,364	-200,000	-0,023	-0,102
-532,350	68,185	-0,074	-0,056
-531,335	3,010	-0,085	-0,045
-530,321	735,062	-0,064	0,128
-529,306	104,296	-0,078	0,068
-528,291	18,166	0,047	0,027
-527,277	-200,000	-0,023	-0,119
-526,262	-200,000	0,000	0,007
-525,248	61,767	0,038	-0,028
-524,233	-145,636	-0,049	0,003
-523,218	-127,052	0,082	0,009
-522,204	-200,000	-0,004	-0,094
-521,189	-200,000	-0,008	-0,110
-520,175	-200,000	-0,006	-0,175
-519,160	-200,000	-0,016	-0,084
-518,145	83,307	-0,088	-0,071
-517,131	-200,000	-0,018	-0,078
-516,116	-200,000	0,034	0,147
-515,102	50,249	-0,080	-0,056
-514,087	-200,000	-0,000	0,016
-513,072	435,584	-0,086	-0,139
-512,058	17,535	0,128	0,075
-511,043	800,000	0,073	0,192
-510,029	-62,269	0,097	-0,030
-509,014	78,099	0,065	-0,051
-507,999	-200,000	-0,003	0,068
-506,985	-44,313	0,016	0,006
-505,970	-119,800	-0,121	-0,015
-504,956	286,984	0,043	-0,057
-503,941	2,094	-0,125	0,066
-502,926	-135,315	-0,035	-0,003
-501,912	-106,456	-0,115	-0,019
-500,897	69,647	0,057	0,043
-499,883	-34,992	-0,032	-0,013
-498,868	-143,750	0,032	-0,002
-497,853	800,000	-0,020	-0,058
-496,839	627,924	0,029	-0,054
-495,824	-200,000	0,010	0,111
-494,810	-200,000	0,008	0,160
-493,795	-48,734	-0,076	-0,027
-492,781	251,347	-0,021	-0,027
-491,766	-72,081	-0,033	-0,009
-490,751	-200,000	0,006	-0,121
-489,737	-200,000	-0,003	-0,101
-488,722	-200,000	0,003	0,028
-487,708	-200,000	0,033	0,137
-486,693	-200,000	0,003	-0,152
-485,678	-121,842	0,052	0,006
-484,664	-98,109	-0,151	0,028
-483,649	-24,259	-0,073	0,032
-482,635	445,111	-0,036	-0,058
-481,620	-89,195	0,013	0,003
-480,605	-200,000	-0,008	0,031
-479,591	-200,000	0,015	0,128
-478,576	399,675	0,070	-0,109
-477,562	65,462	-0,097	-0,072
-476,547	-200,000	0,010	0,040
-475,532	-10,169	0,012	-0,006
-474,518	255,074	-0,086	0,109
-473,503	164,240	0,087	-0,091
-472,489	-200,000	0,024	0,174
-471,474	-74,874	-0,094	-0,025
-470,459	800,000	0,037	-0,097
-469,445	-117,676	-0,090	0,012
-468,430	89,245	0,033	0,027
-467,416	-29,652	0,037	0,015
-466,401	800,000	-0,059	-0,122
-465,386	-200,000	0,003	0,033
-464,372	313,796	0,090	0,125
-463,357	226,014	-0,087	-0,104
-462,343	18,439	-0,085	0,050
-461,328	-78,377	0,069	-0,017
-460,313	800,000	-0,043	-0,123
-459,299	209,234	-0,066	-0,076
-458,284	-16,259	-0,021	-0,010
-457,270	309,647	-0,007	-0,010
-456,255	-171,726	-0,162	-0,004
-455,241	-44,316	-0,077	0,028
-454,226	-200,000	-0,001	-0,085
-453,211	452,018	0,027	0,044
-452,197	-200,000	-0,006	0,145
-451,182	-200,000	-0,022	0,170
-450,168	494,998	0,054	0,092
-449,153	90,919	-0,031	0,026
-448,138	-200,000	0,004	-0,080
-447,124	800,000	0,054	-0,133
-446,109	-68,725	-0,071	0,020
-445,095	201,015	0,070	-0,079
-444,080	-56,055	-0,049	-0,016
-443,065	-160,992	-0,115	-0,004
-442,051	-14,833	-0,070	0,033
-441,036	-146,691	-0,085	0,005
-440,022	373,372	-0,073	-0,109
-439,007	-36,691	-0,051	0,020
-437,992	-35,377	0,038	0,015
-436,978	-115,465	0,106	0,015
-435,963	-200,000	0,017	0,061
-434,949	698,287	0,040	-0,077
-433,934	790,185	-0,035	-0,071
-432,919	-200,000	-0,008	0,188
-431,905	-200,000	-0,005	0,037
-430,890	107,953	0,078	0,068
-429,876	-114,924	0,070	0,010
-428,861	401,365	0,046	0,071
-427,846	48,258	0,177	0,122
-426,832	467,880	0,066	-0,109
-425,817	-123,106	-0,094	0,011
-424,803	-33,505	-0,045	-0,018
-423,788	-103,984	0,035	0,006
-422,773	136,692	0,105	0,101
-421,759	529,776	0,046	-0,081
-420,744	-138,236	-0,053	-0,004
-419,730	800,000	0,010	0,023
-418,715	-74,468	0,175	-0,046
-417,701	56,536	-0,035	0,025
-416,686	-20,553	-0,128	-0,058
-415,671	-200,000	0,022	0,102
-414,657	-200,000	0,014	0,083
-413,642	-200,000	-0,008	0,031
-412,628	-137,816	-0,118	0,010
-411,613	-191,701	-0,010	0,000
-410,598	527,629	-0,041	0,072
-409,584	800,000	-0,014	0,031
-408,569	57,235	0,228	-0,163
-407,555	-200,000	0,049	-0,168
-406,540	800,000	-0,040	-0,128
-405,525	226,510	-0,035	-0,042
-404,511	-200,000	0,028	-0,095
-403,496	-200,000	0,002	-0,006
-402,482	800,000	0,010	-0,029
-401,467	800,000	-0,030	-0,087
-400,452	-200,000	0,004	0,055
-399,438	-69,008	0,124	-0,035
-398,423	-200,000	-0,010	0,083
-397,409	224,316	0,051	0,061
-396,394	-157,038	0,138	0,006
-395,379	-200,000	0,009	-0,030
-394,365	304,472	0,090	0,124
-393,350	800,000	0,045	-0,099
-392,336	-180,133	-0,089	-0,001
-391,321	712,487	-0,068	0,134
-390,306	-148,102	0,140	0,008
-389,292	-188,102	-0,063	0,001
-388,277	67,357	0,109	-0,081
-387,263	213,202	0,060	0,070
-386,248	216,617	-0,025	-0,029
-385,233	210,847	-0,102	-0,118
-384,219	-112,490	-0,098	0,014
-383,204	73,168	0,070	-0,054
-382,190	-200,000	0,030	-0,124
-381,175	800,000	0,005	0,013
-380,160	800,000	0,026	0,069
-379,146	639,926	0,026	0,048
-378,131	85,084	-0,087	0,070
-377,117	800,000	-0,045	-0,134
-376,102	357,792	-0,087	-0,128
-375,088	210,162	-0,080	-0,092
-374,073	126,775	-0,080	-0,074
-373,058	-178,956	0,131	-0,002
-372,044	-40,168	0,090	-0,034
-371,029	289,716	0,094	0,126
-370,015	82,400	0,082	0,065
-369,000	-114,421	-0,079	-0,011
-367,985	-163,747	-0,049	0,002
-366,971	-139,829	-0,005	-0,000
-365,956	-10,298	0,105	0,051
-364,942	222,520	0,027	0,032
-363,927	128,438	-0,042	0,039
-362,912	-45,218	0,084	-0,031
-361,898	-163,621	0,040	0,001
-360,883	45,264	-0,102	-0,069
-359,869	-200,000	-0,012	-0,112
-358,854	177,059	-0,089	0,096
-357,839	-112,388	0,151	0,022
-356,825	-47,648	0,083	0,029
-355,810	-200,000	0,019	0,066
-354,796	-70,304	0,010	0,003
-353,781	800,000	-0,055	0,167
-352,766	-12,726	-0,113	0,054
-351,752	800,000	-0,020	0,053
-350,737	172,195	0,174	0,184
-349,723	-62,132	0,082	-0,025
-348,708	-200,000	0,000	0,150
-347,693	166,856	0,025	-0,026
-346,679	-111,534	-0,148	0,022
-345,664	249,357	0,039	-0,049
-344,650	1,213	0,082	-0,043
-343,635	494,125	0,041	-0,070
-342,620	-200,000	-0,011	0,148
-341,606	241,791	-0,105	0,129
-340,591	113,088	0,108	0,096
-339,577	18,968	0,031	0,018
-338,562	-138,989	-0,024	0,002
-337,548	-200,000	0,013	-0,065
-336,533	-200,000	-0,003	-0,087
-335,518	41,919	0,046	-0,031
-334,504	-200,000	-0,033	0,143
-333,489	36,530	0,086	-0,056
-332,475	-145,593	-0,032	0,002
-331,460	794,279	0,059	-0,119
-330,445	-184,826	0,079	0,001
-329,431	577,105	0,023	-0,042
-328,416	-2,524	0,041	0,021
-327,402	399,495	-0,021	0,032
-326,387	-200,000	0,003	0,043
-325,372	-58,389	-0,098	0,031
-324,358	213,259	-0,040	-0,046
-323,343	507,961	0,025	-0,043
-322,329	161,510	0,028	-0,029
-321,314	138,458	0,027	0,026
-320,299	188,775	0,108	-0,119
-319,285	800,000	-0,075	-0,162
-318,270	76,280	-0,086	0,067
-317,256	-200,000	0,013	-0,065
-316,241	-82,090	-0,034	-0,008
-315,226	-2,672	0,069	-0,035
-314,212	277,315	0,042	0,055
-313,197	800,000	-0,008	0,019
-312,183	-123,757	0,086	0,010
-311,168	-200,000	0,001	0,085
-310,153	228,384	-0,035	-0,042
-309,139	19,762	-0,047	0,028
-308,124	-0,307	0,198	0,103
-307,110	673,252	0,010	0,019
-306,095	26,442	0,122	0,074
-305,080	13,730	0,058	0,033
-304,066	-103,885	-0,155	-0,026
-303,051	-119,635	-0,069	0,009
-302,037	95,303	0,055	-0,046
-301,022	800,000	0,033	-0,081
-300,008	64,972	-0,089	0,066
-298,993	167,462	0,038	0,039
-297,978	44,120	0,049	-0,033
-296,964	381,504	-0,067	-0,102
-295,949	533,671	-0,043	-0,075
-294,935	109,917	-0,038	-0,033
-293,920	-200,000	0,011	0,044
-292,905	168,417	0,045	0,047
-291,891	-68,498	0,073	-0,021
-290,876	94,774	0,077	0,064
-289,862	-200,000	0,014	0,053
-288,847	-53,102	-0,069	-0,023
-287,832	800,000	0,024	0,056
-286,818	656,203	-0,091	0,173
-285,803	-113,205	-0,141	-0,020
-284,789	-60,012	0,048	-0,015
-283,774	-135,999	0,034	-0,003
-282,759	-156,839	-0,243	0,011
-281,745	116,755	0,163	-0,147
-280,730	-48,964	-0,124	-0,043
-279,716	800,000	0,074	0,179
-278,701	-200,000	0,009	-0,117
-277,686	101,186	0,106	-0,090
-276,672	199,932	0,062	0,069
-275,657	-95,098	0,103	0,020
-274,643	249,410	0,046	0,057
-273,628	-138,014	-0,100	-0,008
-272,613	277,405	0,081	0,105
-271,599	-148,318	0,132	-0,008
-270,584	-200,000	-0,024	0,118
-269,570	-94,209	0,072	0,014
-268,555	-170,308	-0,084	-0,002
-267,540	800,000	-0,029	-0,086
-266,526	701,668	-0,066	-0,128
-265,511	-61,627	-0,107	0,033
-264,497	576,937	-0,051	-0,091
-263,482	-86,033	0,180	-0,040
-262,467	-111,654	-0,049	-0,007
-261,453	-200,000	0,010	-0,113
-260,438	277,739	0,055	0,072
-259,424	218,197	-0,033	-0,039
-258,409	3,427	0,002	0,001
-257,395	121,949	0,085	-0,077
-256,380	-200,000	-0,004	0,051
-255,365	93,206	0,068	-0,056
-254,351	-200,000	-0,060	-0,243
-253,336	-200,000	-0,011	-0,095
-252,322	61,198	0,056	0,041
-251,307	-200,000	-0,002	0,041
-250,292	-72,057	-0,126	0,034
-249,278	142,847	0,033	0,032
-248,263	303,622	0,064	0,087
-247,249	517,761	-0,079	0,136
-246,234	-200,000	-0,022	0,100
-245,219	-22,767	0,035	-0,016
-244,205	800,000	0,026	0,082
-243,190	-200,000	0,008	-0,131
-242,176	126,036	-0,034	-0,031
-241,161	172,209	0,082	-0,087
-240,146	134,303	0,082	0,078
-239,132	-200,000	-0,012	-0,101
-238,117	749,833	-0,040	-0,079
-237,103	578,585	-0,090	-0,161
-236,088	-200,000	0,011	-0,119
-235,073	-200,000	-0,007	0,082
-234,059	800,000	-0,022	0,052
-233,044	112,483	0,090	0,080
-232,030	9,988	-0,041	-0,023
-231,015	35,027	-0,065	-0,042
-230,000	-42,384	-0,134	-0,050
-228,986	40,851	0,044	-0,029
-227,971	146,450	0,121	0,119
-226,957	95,509	0,026	-0,022
-225,942	-10,590	-0,061	0,029
-224,927	-200,000	0,004	0,044
-223,913	146,104	-0,065	-0,064
-222,898	-200,000	-0,006	-0,045
-221,884	333,949	-0,037	0,052
-220,869	-11,982	0,131	0,063
-219,855	-106,283	-0,118	-0,019
-218,840	419,528	-0,055	0,087
-217,825	313,160	-0,061	0,084
-216,811	-177,949	0,080	-0,001
-215,796	-158,523	-0,066	0,003
-214,782	767,080	0,024	0,047
-213,767	38,617	0,099	-0,064
-212,752	-200,000	-0,001	0,045
-211,738	398,349	0,013	-0,019
-210,723	796,498	0,015	0,030
-209,709	40,276	0,046	-0,030
-208,694	145,724	-0,061	-0,059
-207,679	409,923	-0,027	-0,042
-206,665	710,237	-0,062	0,121
-205,650	-104,984	0,077	-0,013
-204,636	40,643	-0,109	-0,071
-203,621	105,657	0,044	0,038
-202,606	-49,226	-0,039	0,014
-201,592	-175,866	0,133	0,003
-200,577	-200,000	-0,014	0,071
-199,563	77,369	0,074	-0,058
-198,548	85,956	0,051	0,041
-197,533	142,661	0,022	-0,022
-196,519	-200,000	0,026	0,089
-195,504	-200,000	-0,036	-0,124
-194,490	-94,846	-0,125	-0,025
-193,475	-89,591	-0,054	0,011
-192,460	10,645	-0,054	-0,030
-191,446	431,852	0,077	0,122
-190,431	800,000	-0,026	0,068
-189,417	66,501	0,161	-0,119
-188,402	-83,274	-0,084	0,020
-187,387	-178,760	-0,182	0,003
-186,373	-32,914	-0,076	-0,031
-185,358	-162,771	-0,067	-0,002
-184,344	-64,481	0,118	-0,035
-183,329	-16,500	0,142	-0,065
-182,315	549,125	-0,033	-0,057
-181,300	-200,000	-0,019	-0,130
-180,285	361,422	0,035	-0,051
-179,271	-40,887	-0,095	-0,035
-178,256	8,734	0,123	-0,068
-177,242	586,155	0,033	-0,060
-176,227	-200,000	0,052	0,211
-175,212	-200,000	-0,011	-0,086
-174,198	-28,250	0,037	0,016
-173,183	-32,227	0,080	-0,033
-172,169	-52,058	-0,146	-0,049
-171,154	-200,000	-0,008	-0,122
-170,139	-69,688	-0,038	0,011
-169,125	-75,418	0,095	-0,024
-168,110	-200,000	0,020	0,106
-167,096	-71,777	0,076	0,021
-166,081	800,000	-0,009	-0,026
-165,066	705,527	-0,022	-0,043
-164,052	-200,000	0,000	0,133
-163,037	319,830	0,032	-0,044
-162,023	129,235	0,138	0,128
-161,008	-200,000	-0,028	0,095
-159,993	-145,777	-0,086	-0,005
-158,979	52,026	-0,068	-0,047
-157,964	271,066	-0,070	-0,090
-156,950	68,506	-0,097	0,072
-155,935	-200,000	-0,003	0,025
-154,920	-136,740	0,080	0,007
-153,906	-200,000	-0,011	0,055
-152,891	-5,305	0,045	0,022
-151,877	-149,579	0,055	-0,003
-150,862	-200,000	0,030	-0,142
-149,847	-200,000	0,001	0,085
-148,833	-8,348	-0,079	-0,039
-147,818	145,297	0,142	-0,138
-146,804	-200,000	0,035	0,145
-145,789	-200,000	-0,002	0,069
-144,775	258,606	0,083	0,104
-143,760	205,429	-0,099	0,112
-142,745	800,000	-0,034	0,098
-141,731	90,709	0,099	0,081
-140,716	-200,000	0,003	0,073
-139,702	-200,000	-0,024	0,092
-138,687	-97,803	0,023	0,004
-137,672	-200,000	0,027	-0,103
-136,658	800,000	-0,108	-0,254
-135,643	800,000	0,036	-0,095
-134,629	235,081	0,035	-0,042
-133,614	23,385	-0,060	0,036
-132,599	800,000	0,011	0,029
-131,585	534,091	0,018	-0,031
-130,570	8,880	0,022	-0,012
-129,556	241,165	-0,103	-0,125
-128,541	-200,000	-0,008	-0,075
-127,526	-200,000	0,014	-0,085
-126,512	800,000	-0,048	-0,117
-125,497	139,570	0,087	0,084
-124,483	257,767	0,024	-0,030
-123,468	-200,000	0,003	0,057
-122,453	164,596	-0,033	0,033
-121,439	-38,022	-0,060	0,023
-120,424	-200,000	0,001	0,045
