DTS Sentinel unit serial number:	SN410029Multiplexer serial number:	ORYXHardware model number:	OX2-SRSoftware version number:	ORYX F/W v4,00 Oryx Data Collector v3.7.2.0data status	okinstallation	B6 Nyhavnadifferential loss correction	single-endedforward channel	channel 2reverse channel	N/Adate	2023/12/10time	14:15:08forward acquisition time	300,00reverse acquisition time	0,00gamma	499,1914k internal	0,3122k external	0,3122temperature offset calibration	1,0000default loss term (dB/km)	0,3820temperature slope calibration	1,0000multiplexer offset coefficient	1,0000multiplexer slope coefficient	1,0000fibre end	0,00T internal ref (°C)	22,67T ext. ref 1 (°C)	6,16T ext. ref 2 (°C)	6,17length (m)	temperature (°C)	Stokes	anti-Stokes-744,400	-200,000	0,005	-0,066
-743,385	97,994	-0,252	0,216
-742,371	186,288	0,039	-0,043
-741,356	-33,207	-0,280	0,115
-740,342	-120,536	0,124	0,016
-739,327	22,653	-0,212	0,129
-738,312	-55,011	0,041	0,014
-737,298	-82,419	-0,260	0,062
-736,283	-83,175	-0,160	-0,038
-735,269	-33,289	-0,303	0,124
-734,254	-200,000	0,015	0,052
-733,239	-108,113	-0,409	-0,065
-732,225	-162,597	0,156	0,006
-731,210	800,000	-0,041	0,092
-730,196	-200,000	-0,004	0,054
-729,181	36,183	-0,022	0,015
-728,167	54,008	-0,078	-0,056
-727,152	598,914	-0,049	-0,091
-726,137	196,417	-0,102	-0,116
-725,123	239,222	-0,028	-0,035
-724,108	94,491	-0,096	-0,081
-723,094	-200,000	-0,002	-0,092
-722,079	21,226	0,065	-0,039
-721,064	477,641	0,011	-0,019
-720,050	800,000	0,009	-0,018
-719,035	106,001	-0,026	-0,023
-718,021	800,000	-0,048	0,112
-717,006	-91,060	-0,191	0,040
-715,991	-200,000	0,006	-0,201
-714,977	187,712	0,039	0,043
-713,962	-200,000	0,044	-0,175
-712,948	380,403	-0,123	-0,188
-711,933	418,108	-0,026	0,042
-710,918	47,912	0,048	-0,033
-709,904	-138,460	-0,094	-0,008
-708,889	246,914	0,041	-0,052
-707,875	-136,465	-0,123	-0,010
-706,860	-104,681	0,121	-0,021
-705,845	399,315	0,010	0,015
-704,831	25,725	0,043	-0,027
-703,816	-78,254	-0,168	-0,043
-702,802	800,000	-0,018	-0,051
-701,787	10,841	-0,103	-0,058
-700,772	800,000	0,041	-0,114
-699,758	-200,000	0,019	0,089
-698,743	800,000	-0,025	0,066
-697,729	-26,823	0,135	-0,058
-696,714	17,755	0,069	-0,041
-695,699	800,000	-0,042	-0,096
-694,685	334,486	-0,055	-0,080
-693,670	-200,000	0,009	-0,189
-692,656	496,402	-0,105	-0,180
-691,641	-86,229	0,044	0,010
-690,627	87,414	0,118	0,097
-689,612	-90,010	-0,066	-0,014
-688,597	401,776	-0,076	-0,119
-687,583	88,578	-0,053	-0,044
-686,568	800,000	0,036	0,105
-685,554	8,137	0,087	-0,049
-684,539	800,000	-0,013	-0,040
-683,524	-200,000	0,041	-0,155
-682,510	429,098	0,066	-0,106
-681,495	82,619	-0,101	-0,082
-680,481	326,520	-0,020	-0,028
-679,466	121,864	-0,071	0,066
-678,451	400,355	-0,040	-0,062
-677,437	-200,000	-0,003	-0,182
-676,422	-101,593	-0,104	0,019
-675,408	-200,000	0,029	0,125
-674,393	58,673	-0,061	0,045
-673,378	-61,485	-0,193	0,060
-672,364	-200,000	0,000	-0,052
-671,349	-118,088	-0,069	0,009
-670,335	-82,126	0,092	0,022
-669,320	800,000	0,022	-0,051
-668,305	13,602	-0,115	0,066
-667,291	115,987	0,100	0,091
-666,276	-56,925	0,038	-0,013
-665,262	-31,699	-0,059	0,024
-664,247	10,100	-0,176	-0,099
-663,232	35,051	0,071	0,046
-662,218	572,870	-0,032	-0,059
-661,203	-200,000	-0,011	-0,045
-660,189	-39,590	-0,018	0,007
-659,174	800,000	0,042	-0,121
-658,159	427,738	-0,068	-0,109
-657,145	126,762	-0,050	-0,047
-656,130	34,851	0,075	-0,048
-655,116	212,771	-0,134	0,158
-654,101	108,010	-0,146	0,129
-653,086	405,838	-0,027	0,042
-652,072	-27,449	-0,144	-0,062
-651,057	-6,467	0,089	0,045
-650,043	800,000	-0,106	-0,227
-649,028	-200,000	-0,017	-0,122
-648,014	-42,493	-0,005	0,002
-646,999	-67,433	-0,070	0,020
-645,984	-76,224	0,046	0,012
-644,970	-200,000	-0,042	-0,158
-643,955	800,000	0,020	-0,044
-642,941	257,287	-0,051	-0,065
-641,926	149,198	0,030	-0,030
-640,911	-175,548	0,094	-0,002
-639,897	60,209	-0,072	-0,053
-638,882	-200,000	-0,000	-0,049
-637,868	-200,000	0,033	-0,123
-636,853	620,707	-0,027	-0,050
-635,838	312,605	-0,106	-0,148
-634,824	-200,000	-0,003	-0,031
-633,809	58,821	0,052	0,038
-632,795	-0,941	-0,133	0,070
-631,780	20,481	-0,059	-0,035
-630,765	117,097	0,069	0,063
-629,751	238,367	0,026	0,033
-628,736	800,000	-0,007	0,023
-627,722	800,000	0,033	-0,088
-626,707	219,051	0,043	-0,051
-625,692	-100,565	0,078	0,014
-624,678	-200,000	-0,008	0,032
-623,663	-3,344	-0,027	0,014
-622,649	-200,000	-0,013	-0,106
-621,634	349,117	0,091	0,133
-620,619	-148,165	0,086	0,005
-619,605	-63,327	0,168	0,051
-618,590	800,000	0,007	0,022
-617,576	-1,821	-0,040	-0,021
-616,561	800,000	0,033	0,071
-615,546	518,941	-0,052	-0,090
-614,532	-16,413	-0,170	-0,080
-613,517	-200,000	-0,006	0,034
-612,503	146,829	-0,107	0,107
-611,488	86,519	0,052	0,042
-610,474	104,180	0,124	0,108
-609,459	159,807	-0,046	0,047
-608,444	229,195	-0,081	-0,099
-607,430	359,371	0,125	0,185
-606,415	161,270	-0,123	-0,128
-605,401	-54,523	0,174	-0,058
-604,386	93,916	0,095	-0,080
-603,371	-91,793	0,086	0,018
-602,357	-200,000	-0,015	0,063
-601,342	557,122	-0,025	-0,045
-600,328	-55,811	0,021	0,007
-599,313	-37,309	-0,147	0,058
-598,298	10,857	-0,093	0,053
-597,284	-67,009	0,056	0,016
-596,269	-94,254	-0,031	0,006
-595,255	10,251	0,099	0,055
-594,240	-200,000	0,017	-0,067
-593,225	488,885	-0,074	-0,126
-592,211	-200,000	-0,017	-0,127
-591,196	800,000	0,019	-0,058
-590,182	124,328	-0,059	-0,055
-589,167	-6,809	0,085	-0,043
-588,152	-48,860	0,187	-0,066
-587,138	273,184	-0,054	0,071
-586,123	784,029	0,006	-0,011
-585,109	-200,000	0,005	-0,120
-584,094	-200,000	0,012	-0,193
-583,079	722,976	-0,026	0,051
-582,065	-200,000	0,035	0,121
-581,050	250,273	0,040	0,050
-580,036	-16,298	0,076	0,036
-579,021	27,883	-0,089	0,056
-578,006	49,050	-0,179	-0,124
-576,992	51,954	0,110	-0,077
-575,977	-200,000	0,002	-0,061
-574,963	800,000	0,041	0,094
-573,948	220,741	0,087	0,103
-572,934	208,950	0,043	-0,049
-571,919	800,000	0,052	-0,108
-570,904	800,000	0,026	0,066
-569,890	230,538	-0,051	0,062
-568,875	-33,728	-0,021	-0,009
-567,861	-84,217	-0,059	-0,014
-566,846	408,683	0,060	0,095
-565,831	85,467	0,046	0,038
-564,817	-103,292	-0,076	0,013
-563,802	800,000	-0,063	-0,131
-562,788	559,154	-0,056	-0,101
-561,773	326,983	-0,046	-0,065
-560,758	577,077	0,014	0,025
-559,744	800,000	0,060	-0,131
-558,729	241,577	-0,049	-0,061
-557,715	52,896	0,049	-0,035
-556,700	-56,836	0,098	0,032
-555,685	-25,710	0,060	-0,026
-554,671	144,896	-0,107	-0,106
-553,656	4,658	0,118	-0,064
-552,642	-200,000	-0,043	0,156
-551,627	157,268	-0,093	-0,095
-550,612	19,221	0,033	-0,020
-549,598	14,301	-0,039	0,023
-548,583	11,743	-0,054	-0,030
-547,569	-167,960	-0,115	-0,003
-546,554	800,000	0,026	0,057
-545,539	224,734	0,029	0,035
-544,525	-200,000	-0,022	-0,092
-543,510	-31,583	0,026	0,011
-542,496	-131,415	-0,086	0,008
-541,481	11,234	-0,113	-0,064
-540,466	-97,913	-0,076	-0,014
-539,452	-7,126	-0,103	-0,052
-538,437	-200,000	0,013	-0,063
-537,423	216,097	0,034	0,040
-536,408	800,000	-0,049	0,104
-535,393	156,484	-0,019	0,020
-534,379	425,247	-0,025	-0,040
-533,364	-103,087	-0,184	0,032
-532,350	-192,425	-0,065	0,000
-531,335	10,366	0,066	-0,037
-530,321	-29,297	0,063	0,026
-529,306	800,000	0,054	-0,157
-528,291	-111,938	-0,110	-0,016
-527,277	128,523	-0,058	-0,054
-526,262	375,609	-0,039	-0,059
-525,248	-200,000	0,020	-0,170
-524,233	800,000	-0,060	-0,173
-523,218	-200,000	0,003	0,110
-522,204	277,417	0,074	0,098
-521,189	-17,961	-0,134	0,062
-520,175	572,349	-0,038	-0,069
-519,160	-109,739	-0,158	0,024
-518,145	328,003	0,023	0,033
-517,131	-173,412	-0,045	-0,001
-516,116	424,317	-0,040	0,063
-515,102	-104,814	0,044	-0,007
-514,087	586,755	0,010	-0,019
-513,072	-200,000	-0,019	-0,094
-512,058	103,140	-0,177	-0,153
-511,043	51,269	0,053	0,037
-510,029	24,703	-0,116	0,071
-509,014	800,000	0,027	0,061
-507,999	-118,097	-0,080	0,010
-506,985	-162,590	-0,078	0,003
-505,970	-42,225	-0,063	-0,024
-504,956	56,790	-0,035	0,025
-503,941	45,052	-0,098	-0,066
-502,926	37,854	0,145	0,095
-501,912	-135,519	0,047	-0,004
-500,897	-200,000	-0,047	0,162
-499,883	29,307	-0,057	0,036
-498,868	-200,000	0,017	-0,101
-497,853	-200,000	0,013	-0,048
-496,839	-34,805	0,019	0,008
-495,824	-165,312	-0,030	-0,001
-494,810	184,822	-0,021	-0,024
-493,795	180,625	-0,023	-0,025
-492,781	206,990	-0,052	-0,060
-491,766	-53,200	-0,101	-0,034
-490,751	-200,000	0,021	-0,088
-489,737	51,983	0,086	-0,061
-488,722	-200,000	-0,038	0,264
-487,708	404,409	0,032	0,050
-486,693	72,539	-0,102	-0,079
-485,678	800,000	-0,031	0,078
-484,664	800,000	-0,042	0,107
-483,649	154,113	-0,061	0,062
-482,635	71,879	0,028	0,021
-481,620	800,000	-0,090	0,235
-480,605	5,789	0,046	0,025
-479,591	-36,022	0,136	-0,054
-478,576	696,189	-0,033	0,064
-477,562	488,170	0,033	0,055
-476,547	-126,695	-0,124	0,013
-475,532	157,074	-0,059	0,060
-474,518	-200,000	0,004	0,081
-473,503	-200,000	-0,024	0,113
-472,489	-200,000	-0,017	-0,087
-471,474	-200,000	0,002	0,053
-470,459	-200,000	0,021	-0,078
-469,445	96,301	0,046	0,039
-468,430	-200,000	0,018	-0,140
-467,416	-200,000	-0,011	-0,065
-466,401	-200,000	-0,026	0,102
-465,386	-200,000	-0,001	0,102
-464,372	-200,000	-0,006	0,114
-463,357	-200,000	0,003	-0,150
-462,343	-19,920	0,043	0,020
-461,328	-125,050	0,211	-0,024
-460,313	253,345	-0,025	0,031
-459,299	186,190	-0,028	0,031
-458,284	800,000	-0,003	0,008
-457,270	-22,892	-0,040	0,018
-456,255	17,806	-0,083	0,048
-455,241	-200,000	0,015	-0,087
-454,226	-187,860	-0,059	-0,001
-453,211	-103,711	0,129	-0,022
-452,197	-200,000	-0,013	0,108
-451,182	-200,000	-0,010	-0,169
-450,168	786,422	0,016	0,033
-449,153	242,761	0,037	-0,045
-448,138	-94,670	-0,108	-0,021
-447,124	-200,000	0,038	0,138
-446,109	75,555	0,073	0,057
-445,095	800,000	0,039	0,117
-444,080	-200,000	-0,008	-0,138
-443,065	82,014	-0,096	-0,076
-442,051	-13,145	-0,070	-0,033
-441,036	-200,000	-0,052	-0,201
-440,022	-131,075	0,112	-0,011
-439,007	-200,000	-0,017	-0,101
-437,992	155,765	-0,081	0,082
-436,978	85,278	-0,045	0,036
-435,963	42,991	-0,057	-0,038
-434,949	-63,353	-0,094	0,028
-433,934	-111,724	-0,107	0,016
-432,919	-2,365	-0,144	0,074
-431,905	157,295	0,136	-0,139
-430,890	-0,878	-0,118	0,061
-429,876	-200,000	0,019	-0,083
-428,861	98,774	-0,040	-0,034
-427,846	-89,341	-0,206	0,044
-426,832	9,002	-0,183	-0,101
-425,817	297,492	0,030	0,040
-424,803	43,670	-0,095	0,064
-423,788	325,519	0,058	-0,082
-422,773	-200,000	-0,012	0,141
-421,759	-16,611	0,128	0,059
-420,744	-200,000	-0,011	0,128
-419,730	-190,650	0,129	-0,001
-418,715	-54,063	-0,049	0,016
-417,701	-6,928	-0,096	-0,048
-416,686	577,850	0,036	-0,066
-415,671	-35,795	-0,069	-0,028
-414,657	290,099	0,139	0,187
-413,642	179,348	-0,048	0,052
-412,628	202,991	0,030	-0,034
-411,613	-56,989	0,057	-0,018
-410,598	376,822	-0,056	-0,084
-409,584	102,182	0,080	0,069
-408,569	-200,000	-0,009	0,216
-407,555	-143,480	0,120	-0,008
-406,540	-200,000	-0,036	0,122
-405,525	-48,519	0,097	-0,034
-404,511	-120,239	-0,194	-0,024
-403,496	121,429	0,064	0,059
-402,482	-133,284	0,151	-0,014
-401,467	84,890	0,115	-0,093
-400,452	187,733	0,061	-0,067
-399,438	-200,000	0,006	0,141
-398,423	-53,554	0,106	-0,036
-397,409	800,000	-0,054	-0,158
-396,394	165,527	0,025	-0,026
-395,379	326,838	0,077	-0,108
-394,365	-200,000	0,000	0,087
-393,350	513,970	-0,096	0,165
-392,336	161,873	-0,050	0,052
-391,321	-88,568	0,012	-0,003
-390,306	-4,746	-0,109	-0,055
-389,292	317,527	-0,029	-0,040
-388,277	-200,000	0,032	0,139
-387,263	-136,348	0,036	0,003
-386,248	-39,078	0,060	-0,023
-385,233	-133,708	0,131	0,012
-384,219	-46,836	-0,056	0,020
-383,204	333,287	-0,065	-0,092
-382,190	-200,000	-0,053	-0,195
-381,175	325,522	0,093	0,131
-380,160	115,159	0,075	0,067
-379,146	67,345	0,089	0,066
-378,131	63,233	0,108	-0,079
-377,117	51,880	0,049	-0,034
-376,102	146,046	-0,134	-0,132
-375,088	-102,729	-0,105	0,018
-374,073	-200,000	-0,002	-0,053
-373,058	606,195	-0,034	0,063
-372,044	-51,455	0,104	-0,036
-371,029	-40,195	-0,184	-0,070
-370,015	-141,723	0,100	0,007
-369,000	74,780	0,046	-0,035
-367,985	427,958	-0,034	0,054
-366,971	-104,271	0,036	0,006
-365,956	800,000	0,022	-0,048
-364,942	800,000	0,027	-0,057
-363,927	21,888	-0,129	0,077
-362,912	-39,527	0,017	-0,006
-361,898	-126,277	-0,106	0,011
-360,883	346,539	0,049	-0,071
-359,869	35,309	0,099	0,064
-358,854	-200,000	-0,031	0,125
-357,839	571,024	-0,007	0,013
-356,825	-200,000	0,002	0,156
-355,810	-120,093	-0,157	0,020
-354,796	800,000	-0,046	0,123
-353,781	176,291	-0,058	-0,062
-352,766	176,915	-0,090	-0,097
-351,752	800,000	0,033	-0,092
-350,737	127,378	0,149	0,139
-349,723	-200,000	0,007	-0,073
-348,708	323,900	-0,033	-0,047
-347,693	-28,584	0,054	-0,023
-346,679	-200,000	-0,047	-0,190
-345,664	52,288	-0,042	-0,029
-344,650	-135,133	0,042	0,004
-343,635	-44,853	-0,129	-0,047
-342,620	-147,990	0,072	0,004
-341,606	-42,279	0,069	-0,026
-340,591	616,887	-0,022	0,040
-339,577	143,532	0,070	0,069
-338,562	-88,668	-0,149	-0,032
-337,548	800,000	-0,010	-0,025
-336,533	800,000	0,010	0,032
-335,518	-123,936	0,059	-0,007
-334,504	146,287	0,106	0,104
-333,489	344,788	0,033	0,048
-332,475	800,000	-0,024	-0,060
-331,460	408,858	-0,056	-0,087
-330,445	-191,147	0,057	0,000
-329,431	-51,802	0,014	-0,005
-328,416	-131,880	0,044	0,004
-327,402	-200,000	0,028	0,109
-326,387	33,788	-0,048	0,030
-325,372	-200,000	-0,001	-0,064
-324,358	405,574	0,070	-0,109
-323,343	800,000	0,035	-0,074
-322,329	502,826	0,039	0,067
-321,314	-200,000	-0,002	0,029
-320,299	-5,206	-0,079	0,040
-319,285	-126,906	0,104	-0,011
-318,270	20,503	-0,078	0,046
-317,256	153,305	-0,081	-0,081
-316,241	-76,893	0,137	0,035
-315,226	-114,014	-0,022	0,003
-314,212	-75,476	0,250	0,065
-313,197	-107,492	-0,031	0,005
-312,183	-200,000	-0,003	0,012
-311,168	-50,208	-0,097	-0,033
-310,153	654,835	-0,039	-0,074
-309,139	-35,911	-0,078	0,031
-308,124	-26,065	-0,075	0,032
-307,110	-200,000	-0,029	0,104
-306,095	-200,000	0,033	0,154
-305,080	240,159	0,096	-0,117
-304,066	292,305	0,093	0,125
-303,051	-90,991	-0,128	0,027
-302,037	-200,000	-0,017	-0,093
-301,022	-200,000	-0,000	0,110
-300,008	-200,000	-0,000	0,123
-298,993	-53,303	0,120	-0,040
-297,978	-25,391	0,064	-0,027
-296,964	56,093	0,067	-0,047
-295,949	-200,000	0,002	-0,075
-294,935	-162,429	0,118	0,004
-293,920	119,809	-0,026	-0,023
-292,905	-29,088	0,113	-0,047
-291,891	450,165	0,094	-0,152
-290,876	749,551	0,050	-0,099
-289,862	-200,000	-0,071	0,000
-288,847	800,000	-0,018	0,047
-287,832	-20,984	0,042	-0,019
-286,818	44,931	-0,134	-0,090
-285,803	-188,151	0,037	-0,000
-284,789	-117,161	0,050	-0,007
-283,774	383,968	-0,025	0,037
-282,759	-132,434	-0,127	-0,012
-281,745	-200,000	-0,002	0,028
-280,730	-200,000	-0,028	-0,098
-279,716	800,000	-0,017	-0,053
-278,701	174,282	0,101	0,107
-277,686	800,000	0,068	0,154
-276,672	-157,439	-0,105	0,005
-275,657	-200,000	-0,007	-0,031
-274,643	-200,000	0,004	-0,113
-273,628	264,470	-0,047	-0,060
-272,613	-7,619	0,091	-0,045
-271,599	-200,000	-0,006	0,078
-270,584	-91,085	0,218	0,045
-269,570	527,330	0,073	0,126
-268,555	800,000	-0,107	-0,226
-267,540	-200,000	0,007	0,084
-266,526	-91,983	-0,101	0,021
-265,511	-200,000	-0,019	-0,109
-264,497	-200,000	-0,007	0,028
-263,482	32,698	0,062	0,039
-262,467	800,000	-0,013	-0,026
-261,453	-39,826	0,111	-0,042
-260,438	-200,000	0,024	-0,120
-259,424	-200,000	-0,018	-0,066
-258,409	-200,000	0,003	0,025
-257,395	-200,000	0,034	-0,122
-256,380	-0,769	0,186	0,096
-255,365	-35,985	-0,117	0,046
-254,351	-37,358	-0,135	0,053
-253,336	653,422	-0,029	-0,054
-252,322	800,000	0,048	-0,136
-251,307	-47,588	-0,105	0,037
-250,292	4,843	0,065	-0,035
-249,278	-200,000	0,025	-0,083
-248,263	-64,066	0,066	-0,020
-247,249	-200,000	-0,012	-0,039
-246,234	-95,758	-0,061	-0,012
-245,219	-200,000	0,036	-0,133
-244,205	800,000	-0,019	0,050
-243,190	-184,212	0,090	0,001
-242,176	800,000	0,077	0,164
-241,161	-24,320	0,070	-0,031
-240,146	800,000	0,068	0,168
-239,132	121,217	-0,036	-0,033
-238,117	-6,183	-0,106	-0,053
-237,103	-29,204	-0,084	0,035
-236,088	-200,000	0,004	0,049
-235,073	-105,220	-0,062	-0,010
-234,059	130,327	0,016	0,015
-233,044	-200,000	-0,012	0,066
-232,030	300,067	-0,088	0,118
-231,015	-84,171	0,055	-0,013
-230,000	800,000	0,045	-0,124
-228,986	-85,259	0,037	-0,008
-227,971	79,008	-0,038	0,030
-226,957	-200,000	0,021	0,114
-225,942	117,196	0,065	0,058
-224,927	-19,785	-0,009	-0,004
-223,913	-200,000	0,025	-0,094
-222,898	-139,959	-0,087	-0,007
-221,884	-35,840	0,092	-0,036
-220,869	56,168	0,063	0,045
-219,855	-7,200	0,121	0,060
-218,840	155,519	0,080	0,080
-217,825	-200,000	-0,001	0,122
-216,811	800,000	-0,022	0,051
-215,796	167,555	0,046	-0,048
-214,782	454,550	-0,082	-0,134
-213,767	-119,543	0,026	-0,003
-212,752	299,951	-0,077	0,104
-211,738	236,333	0,071	0,086
-210,723	-27,945	-0,123	-0,052
-209,709	-200,000	-0,005	-0,091
-208,694	-18,742	-0,109	0,049
-207,679	-166,414	0,151	-0,005
-206,665	-200,000	-0,012	-0,061
-205,650	800,000	-0,040	0,086
-204,636	-129,432	0,087	0,009
-203,621	-200,000	-0,009	0,118
-202,606	800,000	0,008	0,021
-201,592	-119,467	-0,054	-0,007
-200,577	253,750	-0,043	-0,054
-199,563	435,007	-0,078	-0,124
-198,548	-76,227	0,200	-0,051
-197,533	141,339	0,075	0,072
-196,519	591,462	0,045	0,082
-195,504	-131,546	0,059	-0,006
-194,490	-66,547	0,023	-0,006
-193,475	261,896	-0,038	-0,048
-192,460	-135,500	0,088	0,008
-191,446	467,280	-0,038	0,062
-190,431	800,000	0,080	0,217
-189,417	380,678	0,040	0,060
-188,402	150,036	0,080	0,079
-187,387	-200,000	0,009	-0,093
-186,373	-42,724	0,083	0,031
-185,358	-42,086	0,065	-0,024
-184,344	-85,920	0,098	0,022
-183,329	-37,007	0,126	0,049
-182,315	-195,236	-0,119	0,001
-181,300	159,772	-0,119	0,121
-180,285	-200,000	0,008	0,076
-179,271	118,968	-0,115	-0,104
-178,256	718,602	-0,065	0,127
-177,242	-200,000	-0,007	0,110
-176,227	800,000	-0,004	0,008
-175,212	800,000	0,057	0,120
-174,198	49,094	-0,057	0,039
-173,183	336,967	-0,064	-0,091
-172,169	-200,000	0,010	-0,110
-171,154	800,000	-0,025	0,069
-170,139	-200,000	0,014	0,145
-169,125	-200,000	0,017	-0,120
-168,110	116,152	0,028	0,025
-167,096	-154,853	0,082	-0,004
-166,081	-94,838	-0,105	-0,021
-165,066	146,455	0,075	0,074
-164,052	-200,000	-0,002	-0,039
-163,037	342,776	0,062	-0,089
-162,023	546,348	0,055	0,097
-161,008	86,056	0,023	0,018
-159,993	35,805	0,093	0,060
-158,979	-200,000	0,004	0,031
-157,964	177,336	-0,082	-0,087
-156,950	-200,000	0,002	0,139
-155,935	-200,000	0,002	0,071
-154,920	-29,137	0,045	-0,019
-153,906	-34,076	0,062	0,025
-152,891	-20,008	0,033	-0,015
-151,877	612,179	0,042	-0,077
-150,862	25,651	-0,047	0,029
-149,847	326,482	-0,038	0,053
-148,833	39,126	0,106	-0,069
-147,818	31,812	-0,032	-0,020
-146,804	472,217	-0,076	0,125
-145,789	-130,229	0,108	-0,011
-144,775	696,620	0,042	0,082
-143,760	275,126	0,073	-0,094
-142,745	299,896	-0,061	-0,082
-141,731	-147,705	-0,088	-0,005
-140,716	-78,366	-0,088	-0,022
-139,702	-200,000	0,018	0,133
-138,687	37,844	-0,016	0,010
-137,672	-200,000	-0,003	0,057
-136,658	-200,000	-0,020	-0,130
-135,643	-200,000	-0,006	-0,049
-134,629	-99,741	0,039	-0,007
-133,614	-60,608	0,067	0,021
-132,599	-8,382	0,047	-0,023
-131,585	419,453	-0,046	0,072
-130,570	-79,402	-0,103	0,025
-129,556	497,813	0,038	-0,063
-128,541	-200,000	0,000	-0,058
-127,526	87,431	-0,120	-0,096
-126,512	68,134	-0,085	0,063
-125,497	-200,000	-0,004	0,043
-124,483	734,426	0,030	0,059
-123,468	800,000	0,039	0,089
-122,453	800,000	-0,023	-0,050
-121,439	42,006	0,139	-0,091
-120,424	-200,000	-0,001	-0,163
-119,410	-200,000	-0,012	0,104
