DTS Sentinel unit serial number:	SN410029Multiplexer serial number:	ORYXHardware model number:	OX2-SRSoftware version number:	ORYX F/W v4,00 Oryx Data Collector v3.7.2.0data status	okinstallation	B6 Nyhavnadifferential loss correction	single-endedforward channel	channel 2reverse channel	N/Adate	2023/12/08time	05:20:08forward acquisition time	300,00reverse acquisition time	0,00gamma	499,1914k internal	0,3165k external	0,3165temperature offset calibration	1,0000default loss term (dB/km)	0,3820temperature slope calibration	1,0000multiplexer offset coefficient	1,0000multiplexer slope coefficient	1,0000fibre end	0,00T internal ref (°C)	13,01T ext. ref 1 (°C)	-3,89T ext. ref 2 (°C)	-3,89length (m)	temperature (°C)	Stokes	anti-Stokes-744,400	-118,942	0,139	-0,018
-743,385	-59,121	-0,246	-0,077
-742,371	121,850	0,104	0,095
-741,356	-112,257	-0,351	-0,051
-740,342	23,565	0,093	0,056
-739,327	-180,430	-0,324	-0,005
-738,312	134,787	0,154	0,148
-737,298	-72,268	-0,439	-0,119
-736,283	92,822	0,095	0,079
-735,269	-200,000	-0,483	0,002
-734,254	-77,293	0,113	0,029
-733,239	-46,194	-0,623	-0,224
-732,225	-117,042	0,091	-0,012
-731,210	-200,000	-0,005	0,018
-730,196	138,807	-0,009	-0,009
-729,181	-129,935	-0,128	0,013
-728,167	800,000	0,039	-0,105
-727,152	-200,000	0,007	0,041
-726,137	51,515	-0,098	-0,068
-725,123	800,000	0,030	-0,086
-724,108	-94,633	-0,029	0,006
-723,094	-136,487	-0,106	-0,009
-722,079	547,838	-0,096	-0,170
-721,064	-200,000	0,008	-0,099
-720,050	-200,000	-0,037	-0,139
-719,035	281,401	-0,080	0,105
-718,021	82,854	-0,108	0,086
-717,006	-115,863	-0,108	0,015
-715,991	198,965	-0,062	-0,070
-714,977	-200,000	0,031	-0,134
-713,962	8,180	0,054	-0,029
-712,948	800,000	-0,055	-0,174
-711,933	-6,791	0,123	0,061
-710,918	159,165	-0,065	-0,066
-709,904	-96,644	0,012	0,002
-708,889	-89,108	-0,104	0,022
-707,875	71,920	-0,101	-0,077
-706,860	-79,035	-0,040	0,010
-705,845	-200,000	-0,004	-0,071
-704,831	-200,000	-0,001	-0,026
-703,816	-78,068	-0,110	-0,027
-702,802	44,312	-0,111	-0,074
-701,787	299,841	-0,088	-0,120
-700,772	-102,977	0,184	0,032
-699,758	800,000	-0,073	-0,154
-698,743	-146,311	0,121	-0,008
-697,729	-102,773	0,156	-0,027
-696,714	-68,833	0,032	0,009
-695,699	27,617	-0,118	0,073
-694,685	-200,000	-0,000	0,133
-693,670	8,534	-0,050	-0,027
-692,656	-200,000	-0,023	0,100
-691,641	-200,000	0,003	0,072
-690,627	8,327	0,011	0,006
-689,612	128,983	0,036	0,034
-688,597	-93,281	-0,129	0,026
-687,583	342,322	-0,079	-0,113
-686,568	-200,000	-0,006	-0,023
-685,554	332,765	-0,026	-0,038
-684,539	341,450	-0,089	0,128
-683,524	-54,210	0,082	0,027
-682,510	-200,000	0,005	0,016
-681,495	472,465	0,008	-0,013
-680,481	518,780	-0,046	-0,079
-679,466	-200,000	-0,000	-0,152
-678,451	-91,162	-0,031	-0,006
-677,437	800,000	0,029	-0,062
-676,422	404,606	-0,032	0,050
-675,408	-22,454	0,074	-0,033
-674,393	74,205	0,110	-0,084
-673,378	419,278	0,073	-0,115
-672,364	-200,000	0,040	-0,163
-671,349	-125,357	-0,103	-0,011
-670,335	-4,060	0,136	-0,069
-669,320	-29,838	0,040	0,017
-668,305	-200,000	0,015	0,129
-667,291	612,805	-0,042	-0,077
-666,276	-54,758	-0,040	0,013
-665,262	125,947	-0,034	0,032
-664,247	800,000	-0,065	-0,132
-663,232	-133,795	-0,055	-0,005
-662,218	-200,000	-0,034	0,119
-661,203	145,847	-0,047	0,046
-660,189	800,000	0,004	-0,009
-659,174	280,872	-0,027	-0,036
-658,159	-59,086	-0,139	-0,044
-657,145	161,031	-0,060	-0,062
-656,130	166,986	0,149	-0,155
-655,116	353,606	0,081	0,118
-654,101	800,000	0,037	0,104
-653,086	379,951	-0,033	0,049
-652,072	81,050	0,084	0,066
-651,057	686,787	-0,015	0,029
-650,043	494,327	-0,081	-0,136
-649,028	348,082	0,048	0,070
-648,014	255,242	0,022	-0,028
-646,999	32,360	-0,066	-0,041
-645,984	-200,000	-0,017	-0,180
-644,970	-200,000	0,004	-0,083
-643,955	9,651	-0,088	-0,049
-642,941	-30,917	0,023	-0,010
-641,926	-190,361	-0,115	0,001
-640,911	224,385	0,052	0,061
-639,897	209,746	-0,065	0,074
-638,882	164,666	-0,069	0,071
-637,868	-46,308	0,138	0,049
-636,853	100,959	0,033	-0,028
-635,838	-76,547	-0,089	-0,023
-634,824	-200,000	0,004	0,049
-633,809	636,466	0,032	-0,059
-632,795	-102,178	0,168	0,029
-631,780	163,388	-0,033	-0,034
-630,765	-200,000	-0,001	-0,120
-629,751	239,458	0,094	-0,115
-628,736	-102,648	-0,193	-0,033
-627,722	-200,000	0,005	-0,062
-626,707	86,932	0,031	-0,025
-625,692	-116,326	0,195	0,026
-624,678	78,429	-0,070	-0,055
-623,663	6,912	-0,111	-0,060
-622,649	-69,720	0,090	-0,025
-621,634	58,552	-0,023	0,017
-620,619	-75,070	-0,040	0,011
-619,605	404,947	-0,015	-0,023
-618,590	152,289	0,065	0,065
-617,576	-136,756	0,113	-0,009
-616,561	22,892	-0,068	-0,041
-615,546	127,455	-0,116	-0,108
-614,532	-45,044	0,069	0,025
-613,517	-116,067	-0,119	-0,016
-612,503	-200,000	0,013	-0,046
-611,488	-200,000	-0,016	-0,138
-610,474	-65,630	-0,036	0,011
-609,459	39,856	-0,051	-0,033
-608,444	611,214	0,081	0,148
-607,430	222,552	0,064	-0,075
-606,415	800,000	0,026	-0,057
-605,401	-119,499	-0,115	-0,014
-604,386	-7,293	0,125	0,062
-603,371	800,000	0,006	0,013
-602,357	94,002	-0,049	-0,040
-601,342	9,582	0,105	0,058
-600,328	231,401	-0,052	-0,062
-599,313	-6,700	-0,065	0,032
-598,298	800,000	-0,020	0,048
-597,284	63,835	0,128	-0,094
-596,269	597,216	-0,044	0,080
-595,255	-200,000	-0,003	-0,015
-594,240	85,258	-0,086	-0,069
-593,225	-129,465	-0,178	-0,018
-592,211	224,619	-0,108	0,128
-591,196	-46,088	-0,081	0,029
-590,182	800,000	-0,013	-0,039
-589,167	167,538	0,014	-0,014
-588,152	-200,000	0,012	0,065
-587,138	-180,210	-0,099	-0,001
-586,123	-200,000	0,028	-0,168
-585,109	800,000	-0,060	-0,150
-584,094	800,000	0,009	0,023
-583,079	800,000	-0,010	-0,033
-582,065	800,000	0,004	-0,010
-581,050	679,756	0,040	0,077
-580,036	51,899	-0,051	0,036
-579,021	-154,171	-0,046	-0,002
-578,006	473,201	-0,041	0,068
-576,992	-64,174	-0,069	0,020
-575,977	195,354	0,059	0,065
-574,963	784,938	-0,030	0,060
-573,948	800,000	0,005	0,014
-572,934	-91,686	-0,086	0,018
-571,919	60,678	-0,076	-0,055
-570,904	-200,000	0,023	-0,082
-569,890	-145,684	-0,102	-0,007
-568,875	-200,000	0,028	0,100
-567,861	800,000	-0,021	0,063
-566,846	800,000	-0,024	0,064
-565,831	-79,100	0,014	0,003
-564,817	-164,189	-0,155	0,005
-563,802	-150,588	-0,098	-0,005
-562,788	-200,000	-0,013	-0,092
-561,773	-200,000	0,019	0,105
-560,758	148,608	0,089	0,088
-559,744	-64,820	-0,155	0,045
-558,729	-200,000	0,003	0,090
-557,715	-30,892	-0,012	0,005
-556,700	175,188	0,082	0,087
-555,685	-200,000	-0,029	-0,109
-554,671	-34,237	0,107	0,043
-553,656	63,381	-0,041	0,030
-552,642	-97,369	-0,026	0,005
-551,627	50,412	-0,051	0,035
-550,612	-81,708	0,056	-0,013
-549,598	800,000	-0,070	-0,150
-548,583	-148,691	-0,069	0,004
-547,569	210,730	-0,085	0,097
-546,554	-87,584	0,093	0,020
-545,539	44,029	-0,061	0,041
-544,525	15,939	0,074	-0,042
-543,510	-140,830	-0,066	0,005
-542,496	-200,000	-0,017	0,064
-541,481	800,000	0,017	0,037
-540,466	-200,000	0,015	0,152
-539,452	-140,245	0,148	0,011
-538,437	-34,544	0,034	-0,014
-537,423	25,879	-0,080	-0,049
-536,408	-181,919	0,042	0,001
-535,393	6,756	-0,024	0,013
-534,379	-144,017	-0,110	-0,007
-533,364	-200,000	-0,053	0,207
-532,350	234,560	-0,107	0,129
-531,335	-99,725	0,066	0,012
-530,321	-200,000	0,026	0,091
-529,306	-121,353	-0,155	-0,019
-528,291	-200,000	-0,004	0,051
-527,277	127,175	-0,058	-0,054
-526,262	-200,000	-0,014	-0,203
-525,248	800,000	0,065	-0,138
-524,233	-200,000	0,004	-0,103
-523,218	401,762	0,038	0,059
-522,204	800,000	0,072	-0,178
-521,189	-200,000	0,019	-0,069
-520,175	-200,000	0,027	-0,094
-519,160	355,244	0,027	-0,039
-518,145	800,000	0,035	0,082
-517,131	-200,000	-0,016	0,191
-516,116	-200,000	-0,001	0,124
-515,102	90,936	-0,015	-0,012
-514,087	604,779	0,039	0,071
-513,072	-93,710	-0,075	-0,015
-512,058	-200,000	-0,001	0,007
-511,043	331,125	0,042	0,059
-510,029	800,000	0,061	-0,131
-509,014	56,896	-0,070	-0,050
-507,999	8,698	-0,113	0,062
-506,985	339,360	-0,017	-0,025
-505,970	90,411	-0,050	-0,041
-504,956	800,000	-0,027	-0,080
-503,941	-57,820	0,092	-0,029
-502,926	-29,568	0,087	-0,036
-501,912	-200,000	-0,003	-0,104
-500,897	54,855	0,049	-0,035
-499,883	-55,335	-0,085	-0,028
-498,868	-38,240	0,073	0,028
-497,853	-70,426	-0,094	-0,026
-496,839	-200,000	0,015	0,083
-495,824	800,000	-0,019	0,043
-494,810	-81,530	0,070	-0,017
-493,795	-200,000	0,002	-0,049
-492,781	17,624	0,098	-0,056
-491,766	-85,706	-0,146	-0,033
-490,751	328,430	-0,054	-0,076
-489,737	-0,709	0,095	-0,049
-488,722	-200,000	0,031	0,117
-487,708	18,325	0,038	-0,022
-486,693	-33,216	0,073	-0,029
-485,678	-158,730	-0,123	-0,005
-484,664	-200,000	-0,005	-0,074
-483,649	-31,256	-0,109	0,044
-482,635	-200,000	-0,008	0,033
-481,620	174,634	0,002	-0,002
-480,605	-36,551	0,127	0,050
-479,591	222,573	-0,129	0,152
-478,576	-13,834	-0,073	-0,034
-477,562	-35,186	0,101	-0,040
-476,547	-200,000	-0,012	-0,077
-475,532	-117,637	0,126	-0,016
-474,518	-87,804	0,104	0,023
-473,503	-110,249	-0,085	0,013
-472,489	-200,000	0,013	0,044
-471,474	-120,005	0,063	0,008
-470,459	110,749	-0,068	-0,059
-469,445	168,152	0,129	-0,134
-468,430	144,658	-0,051	-0,050
-467,416	333,089	-0,038	0,053
-466,401	-170,499	-0,029	-0,001
-465,386	313,858	0,098	0,135
-464,372	-200,000	0,025	0,113
-463,357	65,353	-0,152	-0,111
-462,343	602,299	-0,043	-0,078
-461,328	241,488	-0,012	-0,014
-460,313	91,191	-0,107	0,087
-459,299	800,000	0,079	0,175
-458,284	-133,453	0,135	-0,012
-457,270	-200,000	0,018	0,134
-456,255	558,107	0,018	-0,032
-455,241	-123,081	-0,057	-0,007
-454,226	-143,346	0,124	-0,008
-453,211	34,681	0,060	0,038
-452,197	-89,642	0,088	-0,019
-451,182	-139,909	0,031	-0,002
-450,168	318,617	-0,027	-0,037
-449,153	47,234	0,023	-0,015
-448,138	-200,000	0,008	-0,090
-447,124	250,059	-0,082	0,101
-446,109	-12,636	-0,046	-0,022
-445,095	800,000	0,006	0,017
-444,080	346,578	0,048	0,069
-443,065	24,663	-0,092	0,056
-442,051	800,000	-0,051	0,135
-441,036	-200,000	0,007	-0,136
-440,022	-176,419	0,055	0,001
-439,007	220,499	-0,040	-0,046
-437,992	-200,000	-0,018	-0,168
-436,978	-99,799	0,112	0,020
-435,963	-200,000	0,000	0,122
-434,949	438,470	0,058	0,093
-433,934	68,036	-0,046	-0,034
-432,919	336,790	0,041	-0,057
-431,905	800,000	-0,051	-0,120
-430,890	-18,205	0,047	0,021
-429,876	320,941	0,065	0,089
-428,861	-200,000	0,064	0,212
-427,846	467,536	0,087	0,143
-426,832	-42,980	0,097	-0,035
-425,817	-150,712	0,044	0,002
-424,803	-63,925	-0,186	-0,055
-423,788	-71,759	-0,084	0,023
-422,773	697,570	-0,010	0,019
-421,759	-181,586	0,066	0,001
-420,744	800,000	-0,026	-0,058
-419,730	-130,779	-0,061	-0,006
-418,715	-200,000	0,015	0,068
-417,701	244,071	0,021	0,026
-416,686	9,880	-0,065	-0,036
-415,671	-200,000	0,014	-0,122
-414,657	-78,109	0,092	-0,023
-413,642	261,908	0,043	0,054
-412,628	-200,000	0,021	-0,103
-411,613	92,699	-0,042	-0,034
-410,598	111,032	0,044	0,039
-409,584	86,777	-0,067	0,053
-408,569	424,562	-0,069	-0,108
-407,555	800,000	0,039	0,117
-406,540	-200,000	0,008	-0,036
-405,525	800,000	0,008	-0,019
-404,511	-61,219	-0,085	0,026
-403,496	800,000	0,028	-0,067
-402,482	23,056	-0,051	0,030
-401,467	98,566	0,132	0,111
-400,452	15,313	-0,105	0,060
-399,438	-200,000	-0,013	0,051
-398,423	312,219	-0,057	-0,078
-397,409	117,262	-0,105	0,094
-396,394	-200,000	0,000	-0,025
-395,379	185,296	0,048	0,052
-394,365	-200,000	0,003	-0,052
-393,350	800,000	-0,035	0,082
-392,336	200,507	-0,060	0,067
-391,321	-200,000	-0,013	0,059
-390,306	800,000	0,047	-0,131
-389,292	-0,450	-0,023	-0,012
-388,277	-200,000	-0,000	-0,032
-387,263	-61,234	0,182	0,055
-386,248	-200,000	0,019	-0,128
-385,233	336,951	0,048	0,068
-384,219	176,930	-0,075	0,079
-383,204	800,000	-0,087	-0,195
-382,190	-200,000	0,004	0,173
-381,175	2,493	0,068	-0,036
-380,160	-200,000	-0,006	-0,131
-379,146	-21,068	0,105	0,046
-378,131	73,731	-0,072	-0,055
-377,117	-200,000	-0,002	0,027
-376,102	623,968	0,031	0,058
-375,088	194,513	-0,074	-0,081
-374,073	800,000	0,049	-0,113
-373,058	495,872	-0,074	-0,124
-372,044	-200,000	-0,010	0,111
-371,029	-105,132	-0,136	-0,022
-370,015	-72,855	0,030	-0,008
-369,000	-200,000	-0,008	0,036
-367,985	800,000	0,042	0,094
-366,971	-80,712	0,057	0,014
-365,956	-101,891	-0,046	0,008
-364,942	-9,494	0,041	0,020
-363,927	187,784	0,109	0,119
-362,912	-200,000	0,010	0,111
-361,898	144,254	-0,057	0,055
-360,883	65,896	-0,110	-0,080
-359,869	213,492	-0,081	-0,093
-358,854	-151,757	0,050	0,003
-357,839	259,287	0,037	0,046
-356,825	-153,665	0,012	-0,001
-355,810	800,000	-0,046	0,099
-354,796	-103,054	-0,141	-0,024
-353,781	800,000	0,024	-0,051
-352,766	-200,000	-0,006	0,101
-351,752	-200,000	-0,005	-0,038
-350,737	73,260	0,023	0,018
-349,723	-82,645	0,031	-0,007
-348,708	68,279	-0,058	-0,043
-347,693	241,674	-0,040	-0,048
-346,679	58,463	-0,091	0,065
-345,664	-200,000	0,010	0,040
-344,650	254,506	0,013	-0,016
-343,635	-200,000	0,004	-0,092
-342,620	-153,587	-0,146	0,007
-341,606	-17,611	-0,069	0,031
-340,591	-5,208	-0,095	0,047
-339,577	-200,000	-0,004	-0,079
-338,562	-29,858	0,120	-0,049
-337,548	-118,210	-0,181	-0,023
-336,533	94,634	0,034	0,028
-335,518	-129,020	0,053	-0,005
-334,504	800,000	0,033	-0,104
-333,489	-111,278	0,091	-0,013
-332,475	156,589	-0,039	-0,039
-331,460	128,461	-0,095	-0,088
-330,445	10,360	0,122	0,067
-329,431	-200,000	-0,026	-0,097
-328,416	-68,489	0,111	-0,031
-327,402	-200,000	0,002	0,015
-326,387	-17,668	0,031	0,014
-325,372	-107,415	-0,059	-0,009
-324,358	-200,000	-0,008	-0,101
-323,343	800,000	-0,035	0,075
-322,329	66,318	-0,101	0,074
-321,314	-158,902	0,082	-0,003
-320,299	-200,000	0,001	0,148
-319,285	-127,387	0,125	-0,013
-318,270	800,000	-0,041	0,112
-317,256	800,000	0,026	0,076
-316,241	483,414	0,039	-0,064
-315,226	-200,000	0,011	0,083
-314,212	92,398	-0,054	-0,044
-313,197	-132,017	0,108	0,010
-312,183	273,180	0,043	0,055
-311,168	-104,679	-0,021	-0,004
-310,153	-74,905	0,083	-0,021
-309,139	800,000	-0,011	0,034
-308,124	618,469	-0,071	0,130
-307,110	-4,896	0,177	0,088
-306,095	-99,803	0,020	-0,004
-305,080	689,893	-0,052	0,099
-304,066	-26,576	0,149	-0,063
-303,051	-172,758	-0,040	0,001
-302,037	-200,000	-0,003	-0,112
-301,022	677,495	0,027	0,051
-300,008	134,312	0,042	0,039
-298,993	-13,386	0,081	0,038
-297,978	75,900	0,124	0,095
-296,964	139,314	0,047	-0,044
-295,949	231,626	-0,076	-0,090
-294,935	-182,128	-0,071	-0,001
-293,920	-200,000	0,005	0,081
-292,905	-200,000	0,046	-0,199
-291,891	310,711	-0,046	0,062
-290,876	-200,000	0,013	0,102
-289,862	55,644	0,032	0,023
-288,847	147,502	0,062	-0,060
-287,832	-70,548	0,035	0,010
-286,818	-200,000	0,002	0,115
-285,803	76,711	-0,070	0,053
-284,789	84,648	-0,047	-0,037
-283,774	-94,758	0,116	0,023
-282,759	308,899	-0,018	-0,024
-281,745	800,000	0,091	-0,200
-280,730	-200,000	0,008	0,201
-279,716	800,000	-0,017	-0,048
-278,701	291,338	0,075	0,099
-277,686	-123,528	-0,088	-0,010
-276,672	-84,751	0,197	0,044
-275,657	-200,000	0,011	0,042
-274,643	58,007	0,091	0,065
-273,628	800,000	0,015	-0,045
-272,613	-71,221	0,112	0,030
-271,599	79,336	-0,043	-0,034
-270,584	48,110	0,123	0,083
-269,570	-174,316	0,060	0,001
-268,555	-74,525	-0,100	-0,026
-267,540	-200,000	-0,012	-0,065
-266,526	529,708	-0,033	-0,056
-265,511	-4,525	0,024	-0,012
-264,497	28,850	0,101	-0,062
-263,482	-200,000	0,002	-0,059
-262,467	800,000	-0,018	0,048
-261,453	-71,076	-0,161	-0,043
-260,438	108,256	0,028	0,024
-259,424	48,661	0,128	-0,086
-258,409	-200,000	-0,009	0,038
-257,395	-147,925	0,092	0,005
-256,380	128,040	0,049	-0,045
-255,365	-60,667	0,083	-0,025
-254,351	137,522	-0,014	0,013
-253,336	800,000	0,007	0,019
-252,322	-98,754	-0,059	-0,011
-251,307	154,599	-0,038	-0,038
-250,292	-41,047	0,095	-0,035
-249,278	-12,209	0,012	0,006
-248,263	-37,046	-0,023	0,009
-247,249	-200,000	0,008	0,038
-246,234	177,630	-0,080	0,084
-245,219	-200,000	-0,001	0,070
-244,205	47,128	0,180	-0,121
-243,190	28,698	0,109	0,067
-242,176	-24,266	0,132	0,057
-241,161	128,384	-0,041	0,038
-240,146	20,942	0,056	0,033
-239,132	-26,145	0,118	0,050
-238,117	-151,165	-0,158	-0,008
-237,103	-200,000	0,002	-0,052
-236,088	-200,000	-0,006	0,139
-235,073	-200,000	-0,002	0,074
-234,059	15,213	0,172	0,097
-233,044	-200,000	0,008	0,036
-232,030	-116,537	-0,142	-0,019
-231,015	800,000	0,056	-0,156
-230,000	27,239	0,049	0,029
-228,986	-199,158	-0,155	0,001
-227,971	-77,782	-0,032	0,008
-226,957	-45,036	0,076	0,027
-225,942	227,405	0,092	0,108
-224,927	-200,000	0,000	-0,149
-223,913	-54,520	0,018	-0,006
-222,898	603,034	-0,054	-0,097
-221,884	32,038	0,015	-0,009
-220,869	-200,000	-0,014	-0,054
-219,855	-48,627	-0,035	-0,012
-218,840	-200,000	-0,012	-0,108
-217,825	351,729	0,025	0,035
-216,811	199,170	0,134	0,148
-215,796	32,676	-0,020	0,012
-214,782	-60,523	-0,120	-0,037
-213,767	301,265	0,026	-0,035
-212,752	800,000	0,038	-0,077
-211,738	-49,602	0,110	-0,038
-210,723	-194,903	-0,173	-0,001
-209,709	800,000	-0,049	-0,117
-208,694	-14,539	-0,057	-0,026
-207,679	-142,219	-0,122	0,009
-206,665	7,889	0,138	-0,074
-205,650	35,965	0,155	-0,098
-204,636	-58,523	-0,066	-0,021
-203,621	7,603	-0,087	0,047
-202,606	-200,000	0,004	0,111
-201,592	221,309	0,025	-0,029
-200,577	19,364	-0,042	-0,024
-199,563	99,783	-0,039	0,033
-198,548	178,932	0,050	0,053
-197,533	-26,936	0,076	-0,032
-196,519	181,537	-0,123	0,130
-195,504	-200,000	-0,012	-0,050
-194,490	800,000	-0,037	-0,106
-193,475	542,559	-0,027	-0,047
-192,460	505,773	0,047	-0,078
-191,446	-97,377	-0,111	-0,021
-190,431	-23,001	0,105	-0,045
-189,417	-200,000	-0,003	-0,071
-188,402	266,033	-0,012	-0,015
-187,387	149,615	-0,083	-0,081
-186,373	-77,046	-0,034	0,009
-185,358	800,000	-0,018	-0,048
-184,344	437,669	-0,089	0,141
-183,329	124,450	-0,043	0,039
-182,315	558,512	-0,024	0,042
-181,300	-65,302	-0,040	0,011
-180,285	800,000	-0,040	-0,114
-179,271	120,807	-0,040	0,036
-178,256	178,893	0,036	0,038
-177,242	258,017	0,072	-0,089
-176,227	-17,962	0,052	0,023
-175,212	-52,058	-0,069	-0,023
-174,198	-76,107	0,149	-0,038
-173,183	-200,000	0,003	0,042
-172,169	-191,624	-0,056	-0,000
-171,154	-200,000	0,017	0,079
-170,139	800,000	-0,015	-0,042
-169,125	49,214	0,088	0,060
-168,110	-200,000	-0,020	0,216
-167,096	93,792	-0,077	-0,062
-166,081	326,548	-0,037	-0,052
-165,066	800,000	0,044	-0,111
-164,052	800,000	-0,054	-0,108
-163,037	-61,416	0,061	0,018
-162,023	-107,877	0,153	0,024
-161,008	-200,000	-0,009	0,041
-159,993	489,719	0,032	-0,053
-158,979	67,913	-0,101	0,074
-157,964	-79,552	-0,074	-0,018
-156,950	-200,000	-0,020	-0,242
-155,935	-200,000	0,032	-0,172
-154,920	656,141	0,100	0,185
-153,906	-200,000	-0,017	-0,073
-152,891	-200,000	0,006	0,051
-151,877	-200,000	0,024	-0,080
-150,862	54,320	0,035	0,024
-149,847	7,351	-0,033	-0,018
-148,833	-68,466	0,078	-0,021
-147,818	206,083	0,116	0,130
-146,804	-200,000	-0,009	0,055
-145,789	-7,908	-0,038	0,018
-144,775	729,478	0,036	-0,069
-143,760	-119,630	0,071	0,009
-142,745	800,000	-0,029	0,086
-141,731	-200,000	0,005	0,094
-140,716	-200,000	0,020	-0,174
-139,702	51,334	0,142	-0,096
-138,687	183,022	0,041	0,044
-137,672	-200,000	0,009	-0,030
-136,658	-39,650	-0,069	-0,026
-135,643	711,122	-0,062	-0,118
-134,629	-71,625	0,043	-0,012
-133,614	-200,000	0,017	-0,144
-132,599	181,497	0,021	-0,022
-131,585	-200,000	-0,012	-0,048
-130,570	344,831	-0,074	0,104
-129,556	84,985	-0,165	0,130
-128,541	-200,000	0,000	-0,106
-127,526	22,088	-0,067	0,039
-126,512	222,625	0,073	0,085
-125,497	108,987	-0,025	-0,022
-124,483	176,297	0,092	0,096
-123,468	130,561	0,050	0,046
-122,453	-200,000	-0,000	-0,067
-121,439	636,219	0,063	-0,115
-120,424	-200,000	0,017	-0,061
-119,410	-61,166	-0,062	-0,019
