DTS Sentinel unit serial number:	SN410029Multiplexer serial number:	ORYXHardware model number:	OX2-SRSoftware version number:	ORYX F/W v4,00 Oryx Data Collector v3.7.2.0data status	okinstallation	B6 Nyhavnadifferential loss correction	single-endedforward channel	channel 2reverse channel	N/Adate	2023/12/08time	13:25:08forward acquisition time	300,00reverse acquisition time	0,00gamma	499,1914k internal	0,3159k external	0,3159temperature offset calibration	1,0000default loss term (dB/km)	0,3820temperature slope calibration	1,0000multiplexer offset coefficient	1,0000multiplexer slope coefficient	1,0000fibre end	0,00T internal ref (°C)	15,06T ext. ref 1 (°C)	-1,55T ext. ref 2 (°C)	-1,55length (m)	temperature (°C)	Stokes	anti-Stokes-744,400	39,189	0,089	0,059
-743,385	-105,705	-0,374	0,062
-742,371	-188,498	0,100	0,001
-741,356	-20,814	-0,197	-0,089
-740,342	401,755	0,044	0,068
-739,327	-64,261	-0,397	0,118
-738,312	71,841	0,063	0,049
-737,298	-136,100	-0,310	0,026
-736,283	9,743	0,123	-0,069
-735,269	-101,267	-0,349	-0,062
-734,254	-88,925	0,141	-0,031
-733,239	-55,846	-0,656	-0,214
-732,225	673,780	0,080	0,154
-731,210	-200,000	0,018	-0,075
-730,196	-200,000	0,010	0,077
-729,181	33,649	-0,018	-0,011
-728,167	-152,688	0,081	-0,004
-727,152	-84,177	-0,095	-0,022
-726,137	112,587	0,075	0,067
-725,123	-200,000	0,001	0,027
-724,108	-130,009	-0,052	-0,005
-723,094	122,590	0,057	-0,053
-722,079	-44,297	-0,146	0,054
-721,064	-27,324	0,097	0,041
-720,050	-200,000	-0,016	-0,060
-719,035	800,000	-0,054	0,129
-718,021	-80,282	-0,105	-0,026
-717,006	-161,498	-0,129	0,005
-715,991	800,000	0,021	-0,060
-714,977	141,924	-0,037	-0,036
-713,962	-17,148	-0,067	-0,031
-712,948	-13,446	-0,027	0,013
-711,933	-200,000	0,009	-0,119
-710,918	-75,201	-0,131	-0,034
-709,904	-74,749	-0,106	-0,028
-708,889	-200,000	-0,020	0,155
-707,875	124,106	0,114	-0,105
-706,860	-138,073	-0,125	0,010
-705,845	6,677	0,161	0,088
-704,831	454,451	0,052	0,085
-703,816	800,000	-0,033	-0,099
-702,802	-200,000	-0,020	-0,082
-701,787	-94,422	-0,008	-0,002
-700,772	337,227	0,043	-0,062
-699,758	464,167	0,020	0,033
-698,743	458,393	0,022	-0,036
-697,729	-200,000	0,004	0,068
-696,714	800,000	-0,013	-0,027
-695,699	-200,000	-0,004	-0,020
-694,685	-200,000	-0,005	0,042
-693,670	-200,000	0,013	0,113
-692,656	333,478	0,066	-0,094
-691,641	720,573	0,057	0,113
-690,627	800,000	-0,065	0,162
-689,612	-200,000	-0,019	-0,098
-688,597	-200,000	0,004	-0,115
-687,583	-171,240	0,137	-0,003
-686,568	-127,514	-0,114	-0,012
-685,554	132,859	0,094	-0,090
-684,539	360,652	-0,108	-0,160
-683,524	34,142	0,112	0,071
-682,510	800,000	0,027	-0,064
-681,495	-200,000	0,018	-0,075
-680,481	-88,574	-0,078	-0,017
-679,466	-200,000	-0,025	-0,205
-678,451	800,000	-0,072	-0,194
-677,437	-18,661	0,084	0,038
-676,422	-7,123	-0,170	-0,084
-675,408	-47,640	-0,143	-0,051
-674,393	-179,500	-0,169	0,003
-673,378	-160,928	-0,050	-0,002
-672,364	373,370	0,053	-0,079
-671,349	-47,993	-0,104	-0,037
-670,335	800,000	-0,020	0,046
-669,320	-11,321	0,035	-0,017
-668,305	-81,210	0,049	-0,012
-667,291	800,000	0,041	0,090
-666,276	188,160	-0,073	0,080
-665,262	60,920	-0,051	-0,037
-664,247	800,000	-0,002	-0,004
-663,232	-27,475	-0,124	0,053
-662,218	-200,000	-0,009	0,084
-661,203	488,856	0,021	-0,035
-660,189	-200,000	0,128	-0,000
-659,174	-200,000	0,024	-0,085
-658,159	54,438	-0,112	-0,079
-657,145	800,000	-0,054	-0,165
-656,130	-200,000	-0,003	0,134
-655,116	-200,000	-0,004	-0,207
-654,101	800,000	0,031	-0,095
-653,086	-200,000	0,042	-0,261
-652,072	287,603	-0,074	-0,099
-651,057	245,245	0,019	-0,024
-650,043	111,056	-0,019	0,017
-649,028	632,980	-0,051	-0,096
-648,014	800,000	-0,048	-0,140
-646,999	81,182	0,114	0,091
-645,984	695,746	-0,067	0,129
-644,970	220,788	-0,052	0,062
-643,955	1,426	0,139	-0,073
-642,941	-200,000	-0,006	-0,050
-641,926	-200,000	0,010	-0,130
-640,911	93,866	-0,029	0,024
-639,897	275,342	0,033	-0,043
-638,882	-20,198	-0,238	0,107
-637,868	-30,537	-0,043	0,018
-636,853	-114,835	-0,076	-0,011
-635,838	-12,171	-0,036	0,017
-634,824	-102,153	0,061	0,011
-633,809	-13,379	-0,091	-0,043
-632,795	-200,000	-0,024	0,089
-631,780	-142,182	-0,118	0,008
-630,765	800,000	-0,035	0,087
-629,751	63,639	0,099	-0,072
-628,736	-39,149	-0,069	-0,027
-627,722	367,766	0,062	0,093
-626,707	45,383	0,084	-0,057
-625,692	-200,000	0,027	-0,143
-624,678	-200,000	0,053	0,000
-623,663	-93,608	-0,109	0,022
-622,649	77,587	-0,040	-0,031
-621,634	800,000	0,038	-0,085
-620,619	-49,162	0,042	0,015
-619,605	-200,000	-0,009	0,054
-618,590	-77,487	0,086	-0,022
-617,576	-200,000	0,004	0,123
-616,561	-69,098	0,049	-0,014
-615,546	-39,192	-0,172	-0,066
-614,532	-200,000	-0,023	-0,115
-613,517	-200,000	-0,004	-0,040
-612,503	385,561	-0,070	-0,106
-611,488	-200,000	0,027	0,168
-610,474	-200,000	0,011	-0,074
-609,459	284,608	-0,055	-0,073
-608,444	140,290	0,124	-0,120
-607,430	38,353	-0,066	0,043
-606,415	-82,692	-0,092	0,022
-605,401	-0,513	0,187	0,097
-604,386	236,835	-0,031	0,038
-603,371	-200,000	0,003	-0,033
-602,357	122,582	0,069	-0,063
-601,342	-90,708	0,027	0,006
-600,328	74,493	0,032	-0,024
-599,313	800,000	-0,037	-0,091
-598,298	-158,536	-0,017	-0,001
-597,284	800,000	0,071	0,213
-596,269	-155,912	0,149	0,007
-595,255	-200,000	0,013	0,082
-594,240	17,351	0,083	-0,048
-593,225	165,740	0,064	0,066
-592,211	-200,000	-0,052	-0,195
-591,196	-200,000	-0,043	0,147
-590,182	800,000	0,025	0,071
-589,167	-151,971	0,007	0,000
-588,152	-200,000	-0,004	-0,081
-587,138	85,684	-0,115	-0,092
-586,123	105,238	-0,110	-0,095
-585,109	-200,000	0,007	-0,042
-584,094	567,621	-0,037	0,066
-583,079	29,360	0,110	0,068
-582,065	800,000	0,022	0,060
-581,050	-198,910	0,012	0,000
-580,036	-58,014	-0,011	-0,004
-579,021	67,814	-0,153	-0,114
-578,006	-200,000	-0,002	0,064
-576,992	7,828	0,080	-0,044
-575,977	-176,092	0,099	0,002
-574,963	89,028	0,019	-0,016
-573,948	800,000	0,029	0,069
-572,934	-200,000	-0,010	0,107
-571,919	800,000	-0,022	-0,053
-570,904	-55,579	-0,076	0,025
-569,890	-200,000	-0,029	-0,096
-568,875	234,108	0,049	-0,059
-567,861	-162,900	-0,027	-0,001
-566,846	-200,000	0,012	0,083
-565,831	170,491	0,048	-0,051
-564,817	-200,000	-0,002	-0,043
-563,802	-94,189	-0,082	-0,016
-562,788	-200,000	-0,016	-0,055
-561,773	-64,711	-0,045	0,013
-560,758	-133,626	0,084	-0,008
-559,744	132,986	0,018	-0,017
-558,729	91,203	0,008	0,006
-557,715	85,883	0,113	0,091
-556,700	17,546	-0,040	-0,023
-555,685	230,295	-0,127	-0,152
-554,671	800,000	-0,034	-0,097
-553,656	-200,000	0,023	-0,120
-552,642	-200,000	-0,037	0,125
-551,627	-133,763	-0,176	-0,016
-550,612	-34,597	0,045	0,018
-549,598	572,581	0,019	-0,033
-548,583	800,000	-0,050	0,134
-547,569	-180,141	-0,120	-0,002
-546,554	-200,000	0,002	-0,020
-545,539	800,000	-0,073	0,161
-544,525	86,674	-0,034	0,027
-543,510	6,447	0,059	0,032
-542,496	788,827	-0,040	-0,081
-541,481	800,000	-0,078	-0,184
-540,466	197,821	0,024	-0,026
-539,452	-142,098	-0,043	0,003
-538,437	-200,000	-0,013	0,084
-537,423	183,407	-0,104	0,112
-536,408	757,928	0,065	-0,129
-535,393	-41,577	-0,119	-0,045
-534,379	800,000	-0,048	-0,101
-533,364	222,025	-0,067	-0,079
-532,350	-200,000	0,000	-0,055
-531,335	62,410	-0,061	-0,044
-530,321	-200,000	0,007	0,027
-529,306	14,115	-0,079	0,045
-528,291	521,575	0,022	-0,038
-527,277	-130,084	-0,074	0,007
-526,262	78,997	-0,048	-0,038
-525,248	800,000	-0,015	-0,033
-524,233	-200,000	0,008	-0,092
-523,218	-200,000	-0,024	0,186
-522,204	-169,553	-0,159	-0,004
-521,189	-200,000	0,022	-0,077
-520,175	800,000	0,040	0,085
-519,160	-126,851	-0,114	-0,012
-518,145	800,000	0,019	0,041
-517,131	-87,152	0,163	0,036
-516,116	-200,000	-0,071	0,000
-515,102	-39,306	0,011	0,004
-514,087	-200,000	-0,011	0,110
-513,072	-200,000	-0,007	0,102
-512,058	220,682	0,055	-0,065
-511,043	-21,650	-0,039	-0,017
-510,029	10,376	0,127	-0,071
-509,014	107,393	-0,035	0,030
-507,999	-200,000	-0,029	0,121
-506,985	-143,339	0,119	-0,008
-505,970	-200,000	0,004	0,024
-504,956	236,231	-0,070	0,085
-503,941	-200,000	0,003	0,093
-502,926	800,000	-0,042	-0,108
-501,912	33,613	0,084	0,054
-500,897	-165,758	0,174	-0,005
-499,883	387,730	-0,062	-0,094
-498,868	21,524	0,045	-0,027
-497,853	210,152	-0,083	-0,095
-496,839	41,264	-0,076	-0,050
-495,824	77,440	0,102	-0,079
-494,810	1,009	0,104	0,054
-493,795	682,467	-0,041	-0,078
-492,781	116,871	-0,056	-0,051
-491,766	-130,895	-0,033	-0,003
-490,751	492,474	-0,033	-0,055
-489,737	-200,000	0,008	-0,094
-488,722	204,450	-0,037	-0,042
-487,708	-200,000	-0,002	-0,038
-486,693	317,525	0,070	-0,096
-485,678	-97,251	0,084	-0,016
-484,664	222,278	-0,060	0,071
-483,649	36,141	0,064	0,041
-482,635	800,000	0,050	-0,162
-481,620	-200,000	-0,010	-0,063
-480,605	-157,479	-0,091	0,004
-479,591	441,204	0,025	0,041
-478,576	20,873	0,065	-0,038
-477,562	-76,941	-0,081	0,021
-476,547	-23,923	0,079	-0,034
-475,532	242,501	0,078	0,096
-474,518	-200,000	0,001	-0,145
-473,503	218,192	0,058	-0,068
-472,489	208,417	-0,050	-0,057
-471,474	-76,125	-0,109	-0,028
-470,459	-200,000	-0,008	-0,074
-469,445	-200,000	-0,042	-0,190
-468,430	68,224	-0,073	-0,055
-467,416	-200,000	-0,002	0,077
-466,401	456,521	0,042	0,068
-465,386	253,013	0,034	0,042
-464,372	17,084	-0,144	-0,083
-463,357	-54,661	-0,057	-0,019
-462,343	-179,679	-0,180	-0,003
-461,328	-0,758	-0,132	-0,068
-460,313	136,182	-0,007	-0,007
-459,299	-66,937	0,130	0,037
-458,284	-200,000	0,037	0,166
-457,270	327,515	0,054	0,076
-456,255	177,200	-0,061	0,065
-455,241	800,000	0,025	-0,072
-454,226	17,836	0,119	0,069
-453,211	-200,000	-0,025	-0,171
-452,197	161,419	0,075	-0,076
-451,182	800,000	-0,029	0,067
-450,168	-200,000	-0,003	0,028
-449,153	800,000	-0,042	-0,087
-448,138	-50,786	0,074	-0,025
-447,124	-58,820	-0,145	0,045
-446,109	49,808	0,110	0,075
-445,095	-47,804	0,206	0,072
-444,080	-110,600	0,078	0,012
-443,065	196,441	-0,052	-0,057
-442,051	-36,391	0,099	0,039
-441,036	98,588	0,019	0,016
-440,022	125,561	-0,106	-0,098
-439,007	800,000	-0,017	-0,053
-437,992	-45,698	-0,081	0,029
-436,978	14,707	0,122	-0,069
-435,963	-200,000	-0,014	-0,086
-434,949	-87,548	0,059	-0,013
-433,934	-19,360	-0,035	0,016
-432,919	205,163	-0,034	-0,038
-431,905	339,013	-0,023	-0,032
-430,890	66,402	0,027	-0,020
-429,876	53,399	-0,049	-0,034
-428,861	-200,000	0,004	0,047
-427,846	286,175	-0,067	0,089
-426,832	-94,994	0,160	0,031
-425,817	-93,116	0,037	0,007
-424,803	-48,771	-0,023	-0,008
-423,788	-200,000	0,028	-0,136
-422,773	-132,333	0,034	0,003
-421,759	525,133	-0,053	0,091
-420,744	52,652	-0,031	0,022
-419,730	800,000	0,054	-0,127
-418,715	24,255	-0,145	-0,087
-417,701	-44,900	-0,030	0,011
-416,686	96,067	0,069	0,057
-415,671	84,642	0,110	0,087
-414,657	177,442	-0,092	0,098
-413,642	-200,000	-0,006	0,035
-412,628	26,047	-0,056	0,034
-411,613	-28,713	-0,091	-0,038
-410,598	-160,973	-0,131	0,005
-409,584	-200,000	-0,016	-0,151
-408,569	800,000	-0,038	0,079
-407,555	602,611	-0,062	0,112
-406,540	-100,572	0,085	0,015
-405,525	-43,173	-0,109	-0,040
-404,511	-200,000	0,003	-0,068
-403,496	-200,000	-0,003	0,033
-402,482	35,787	-0,081	0,052
-401,467	48,759	0,064	-0,043
-400,452	-26,584	0,142	-0,060
-399,438	-200,000	-0,038	0,175
-398,423	-200,000	0,006	0,145
-397,409	603,168	-0,032	0,058
-396,394	800,000	-0,003	0,008
-395,379	-200,000	-0,014	0,112
-394,365	800,000	0,074	0,172
-393,350	225,790	-0,080	-0,095
-392,336	-200,000	-0,008	0,042
-391,321	107,476	-0,048	0,042
-390,306	800,000	0,038	-0,081
-389,292	-117,901	0,141	-0,018
-388,277	171,676	0,096	-0,101
-387,263	571,588	-0,054	-0,097
-386,248	800,000	0,086	-0,249
-385,233	-200,000	-0,009	0,076
-384,219	80,069	-0,112	-0,087
-383,204	800,000	0,018	-0,040
-382,190	-200,000	-0,003	-0,100
-381,175	-84,618	0,116	-0,026
-380,160	9,415	0,065	-0,036
-379,146	-200,000	-0,022	-0,086
-378,131	83,507	-0,099	0,079
-377,117	-51,677	0,009	0,003
-376,102	118,824	-0,096	0,086
-375,088	260,793	0,030	0,038
-374,073	-200,000	-0,028	-0,169
-373,058	52,297	-0,152	0,105
-372,044	62,138	0,140	-0,101
-371,029	133,717	0,037	0,035
-370,015	-200,000	-0,028	0,186
-369,000	-200,000	0,012	0,049
-367,985	278,989	-0,015	-0,019
-366,971	139,761	0,063	-0,061
-365,956	800,000	0,066	0,174
-364,942	-200,000	-0,002	0,141
-363,927	-200,000	-0,010	0,166
-362,912	718,162	0,065	0,126
-361,898	-47,571	0,112	-0,039
-360,883	600,811	-0,026	0,047
-359,869	12,798	-0,071	-0,040
-358,854	-200,000	0,021	-0,131
-357,839	248,394	-0,006	0,007
-356,825	649,632	-0,032	0,060
-355,810	157,170	0,070	0,070
-354,796	-117,406	-0,062	-0,008
-353,781	-62,537	-0,108	0,032
-352,766	-9,528	-0,005	-0,002
-351,752	800,000	-0,063	-0,134
-350,737	-200,000	0,017	0,073
-349,723	85,019	0,103	0,082
-348,708	80,143	0,122	0,095
-347,693	800,000	-0,033	-0,068
-346,679	144,054	0,110	-0,106
-345,664	230,510	-0,086	-0,102
-344,650	152,017	-0,036	-0,036
-343,635	79,871	-0,030	0,023
-342,620	-73,420	0,202	0,053
-341,606	-180,787	-0,108	-0,002
-340,591	800,000	-0,034	0,074
-339,577	294,256	0,031	-0,041
-338,562	613,725	0,047	-0,086
-337,548	-200,000	-0,000	0,046
-336,533	800,000	-0,022	0,046
-335,518	800,000	-0,009	0,019
-334,504	-148,578	-0,081	-0,005
-333,489	160,477	0,026	0,026
-332,475	-200,000	-0,021	0,108
-331,460	-68,792	0,071	-0,020
-330,445	-200,000	-0,023	0,097
-329,431	59,045	0,055	-0,039
-328,416	800,000	-0,017	0,044
-327,402	406,794	0,054	0,083
-326,387	-89,082	0,061	-0,013
-325,372	-200,000	-0,018	-0,125
-324,358	800,000	0,031	0,094
-323,343	21,713	0,089	0,052
-322,329	87,758	0,111	-0,089
-321,314	-200,000	-0,039	0,203
-320,299	-200,000	-0,023	0,077
-319,285	457,824	-0,057	-0,092
-318,270	228,853	0,036	-0,043
-317,256	-200,000	0,014	0,150
-316,241	-100,540	0,079	-0,014
-315,226	9,178	0,062	0,034
-314,212	211,511	-0,008	-0,009
-313,197	258,055	0,073	0,092
-312,183	-1,088	-0,093	0,047
-311,168	22,008	-0,084	0,050
-310,153	-200,000	0,023	0,146
-309,139	800,000	0,013	-0,034
-308,124	99,399	-0,064	0,053
-307,110	-200,000	0,017	0,112
-306,095	225,286	-0,068	0,080
-305,080	-200,000	-0,004	0,058
-304,066	800,000	-0,012	-0,031
-303,051	66,923	-0,096	-0,071
-302,037	-73,262	0,114	-0,030
-301,022	-132,286	0,151	0,014
-300,008	800,000	0,021	-0,054
-298,993	-200,000	0,010	0,101
-297,978	215,796	-0,045	0,052
-296,964	-74,938	0,038	0,010
-295,949	-200,000	0,008	0,028
-294,935	261,965	0,086	-0,108
-293,920	-136,375	0,135	-0,011
-292,905	-28,794	-0,045	-0,019
-291,891	204,153	-0,054	-0,061
-290,876	-146,826	-0,075	0,005
-289,862	96,297	0,011	-0,009
-288,847	70,064	0,045	-0,033
-287,832	-200,000	-0,010	-0,060
-286,818	-200,000	-0,022	-0,081
-285,803	-22,097	-0,066	0,029
-284,789	-119,384	-0,082	-0,010
-283,774	60,675	0,067	0,048
-282,759	-27,604	0,134	-0,056
-281,745	-200,000	0,020	-0,073
-280,730	-200,000	-0,004	-0,042
-279,716	150,722	0,022	-0,022
-278,701	-175,164	0,047	0,001
-277,686	379,618	0,081	0,121
-276,672	-200,000	0,009	0,115
-275,657	26,340	0,158	0,095
-274,643	-200,000	0,010	0,033
-273,628	800,000	-0,047	-0,132
-272,613	101,386	-0,066	-0,055
-271,599	-156,017	0,277	-0,012
-270,584	-8,302	-0,153	0,074
-269,570	197,115	0,037	-0,041
-268,555	-200,000	0,005	0,154
-267,540	63,583	-0,109	0,079
-266,526	69,828	-0,085	-0,063
-265,511	149,304	0,022	-0,022
-264,497	-200,000	0,002	0,027
-263,482	553,594	0,064	-0,111
-262,467	-200,000	0,001	0,078
-261,453	735,490	-0,035	-0,068
-260,438	800,000	-0,052	-0,162
-259,424	-169,398	-0,053	-0,001
-258,409	-35,412	-0,066	0,026
-257,395	192,196	0,038	-0,042
-256,380	800,000	0,038	0,112
-255,365	-200,000	-0,009	-0,058
-254,351	-200,000	-0,003	0,019
-253,336	-118,932	-0,061	-0,008
-252,322	-200,000	-0,003	0,098
-251,307	576,490	0,020	0,035
-250,292	-200,000	-0,016	-0,084
-249,278	528,665	0,028	-0,048
-248,263	459,231	-0,082	0,133
-247,249	-200,000	-0,024	0,100
-246,234	-85,266	-0,136	-0,030
-245,219	647,280	0,020	0,037
-244,205	73,795	0,037	0,028
-243,190	294,590	0,028	0,038
-242,176	-200,000	0,003	0,097
-241,161	97,958	0,149	0,124
-240,146	-117,215	-0,009	-0,001
-239,132	87,317	-0,065	0,052
-238,117	56,835	-0,025	0,017
-237,103	-200,000	0,026	-0,092
-236,088	263,656	0,059	-0,075
-235,073	476,250	0,101	0,166
-234,059	389,609	0,007	-0,011
-233,044	551,952	0,041	-0,072
-232,030	-200,000	0,005	0,067
-231,015	-114,235	0,059	0,008
-230,000	123,408	-0,082	-0,075
-228,986	-200,000	-0,014	0,090
-227,971	-81,577	0,069	0,016
-226,957	-96,956	-0,046	-0,009
-225,942	0,795	-0,082	0,042
-224,927	336,031	-0,072	0,101
-223,913	12,128	-0,061	-0,034
-222,898	-200,000	-0,003	-0,027
-221,884	132,512	-0,130	0,121
-220,869	-14,174	0,099	0,046
-219,855	-102,645	0,119	-0,020
-218,840	338,169	-0,057	-0,081
-217,825	-155,507	0,143	-0,007
-216,811	-124,136	-0,191	-0,021
-215,796	211,854	0,115	0,131
-214,782	-70,866	-0,055	-0,015
-213,767	235,838	0,046	-0,055
-212,752	40,503	0,114	0,074
-211,738	800,000	-0,031	-0,090
-210,723	800,000	0,055	-0,127
-209,709	-110,883	-0,088	-0,013
-208,694	800,000	0,051	-0,107
-207,679	736,410	0,045	-0,088
-206,665	-200,000	-0,026	-0,123
-205,650	-83,216	0,126	-0,029
-204,636	-200,000	-0,013	0,086
-203,621	309,384	-0,019	0,025
-202,606	72,936	-0,135	0,102
-201,592	-4,061	-0,050	-0,025
-200,577	-145,843	-0,110	0,007
-199,563	-118,976	0,027	-0,003
-198,548	287,049	0,020	0,026
-197,533	236,266	-0,033	0,040
-196,519	800,000	-0,016	0,037
-195,504	-200,000	0,009	-0,107
-194,490	-170,615	-0,063	0,002
-193,475	-200,000	0,016	-0,202
-192,460	12,156	0,091	-0,051
-191,446	5,884	0,051	0,027
-190,431	34,152	-0,068	0,043
-189,417	-200,000	0,018	0,118
-188,402	800,000	0,065	0,160
-187,387	-83,342	0,010	0,002
-186,373	231,464	0,089	0,105
-185,358	-150,975	-0,104	-0,006
-184,344	46,132	0,102	0,068
-183,329	0,724	0,114	-0,059
-182,315	800,000	0,025	-0,053
-181,300	-31,557	0,028	-0,011
-180,285	-200,000	-0,026	0,085
-179,271	61,469	-0,026	-0,019
-178,256	634,870	0,048	-0,088
-177,242	-20,041	0,054	-0,024
-176,227	20,638	0,126	0,073
-175,212	-154,140	-0,087	0,004
-174,198	288,636	-0,041	-0,053
-173,183	14,687	-0,007	-0,004
-172,169	-200,000	0,012	-0,082
-171,154	-200,000	-0,000	0,082
-170,139	134,230	-0,033	0,030
-169,125	-94,767	0,027	0,005
-168,110	-200,000	-0,013	0,060
-167,096	235,675	0,055	0,065
-166,081	347,464	-0,081	-0,116
-165,066	292,638	0,069	0,091
-164,052	-200,000	-0,002	-0,061
-163,037	-16,019	-0,029	-0,013
-162,023	800,000	0,016	0,049
-161,008	-200,000	0,005	0,042
-159,993	55,666	0,038	0,026
-158,979	174,544	-0,106	-0,110
-157,964	87,520	-0,105	-0,084
-156,950	-200,000	-0,003	-0,019
-155,935	-48,655	0,054	-0,019
-154,920	0,052	0,133	-0,068
-153,906	-21,767	0,049	0,021
-152,891	221,993	-0,059	-0,069
-151,877	126,926	0,080	-0,073
-150,862	-92,162	-0,153	0,031
-149,847	-27,825	-0,048	0,020
-148,833	-48,569	0,091	-0,031
-147,818	800,000	-0,021	0,055
-146,804	180,157	0,026	-0,028
-145,789	60,248	0,083	-0,059
-144,775	-155,341	-0,100	-0,005
-143,760	-63,150	0,097	-0,028
-142,745	111,741	-0,097	-0,084
-141,731	800,000	-0,041	-0,105
-140,716	800,000	0,027	-0,063
-139,702	358,745	0,027	0,040
-138,687	-170,663	-0,091	0,002
-137,672	-121,682	-0,034	-0,004
-136,658	106,569	-0,023	-0,019
-135,643	-200,000	-0,018	-0,072
-134,629	-84,694	0,071	-0,016
-133,614	287,359	-0,051	-0,067
-132,599	-106,678	0,056	-0,009
-131,585	-200,000	0,015	-0,060
-130,570	-200,000	-0,025	-0,080
-129,556	800,000	-0,008	-0,023
-128,541	-108,628	-0,104	0,016
-127,526	655,365	0,020	-0,038
-126,512	3,536	0,034	0,018
-125,497	165,675	0,085	0,086
-124,483	-200,000	-0,020	0,116
-123,468	-200,000	-0,039	-0,132
-122,453	501,282	-0,017	-0,029
-121,439	800,000	-0,045	-0,116
-120,424	-200,000	-0,014	-0,069
