DTS Sentinel unit serial number:	SN410029Multiplexer serial number:	ORYXHardware model number:	OX2-SRSoftware version number:	ORYX F/W v4,00 Oryx Data Collector v3.7.2.0data status	okinstallation	B6 Nyhavnadifferential loss correction	single-endedforward channel	channel 2reverse channel	N/Adate	2023/12/09time	17:05:08forward acquisition time	300,00reverse acquisition time	0,00gamma	499,1914k internal	0,3131k external	0,3131temperature offset calibration	1,0000default loss term (dB/km)	0,3820temperature slope calibration	1,0000multiplexer offset coefficient	1,0000multiplexer slope coefficient	1,0000fibre end	0,00T internal ref (°C)	20,95T ext. ref 1 (°C)	4,70T ext. ref 2 (°C)	4,69length (m)	temperature (°C)	Stokes	anti-Stokes-744,400	-200,000	-0,014	-0,126
-743,385	-145,453	-0,231	0,015
-742,371	-110,007	0,114	-0,018
-741,356	-125,622	-0,208	0,023
-740,342	-109,809	0,155	-0,024
-739,327	5,526	-0,256	0,140
-738,312	-101,721	-0,093	-0,017
-737,298	-115,660	-0,292	0,040
-736,283	193,660	0,102	-0,115
-735,269	-145,445	-0,124	0,008
-734,254	-89,508	-0,092	0,020
-733,239	-75,199	-0,325	-0,086
-732,225	139,416	0,015	0,015
-731,210	262,934	0,027	0,035
-730,196	301,090	-0,047	-0,064
-729,181	54,393	-0,034	0,025
-728,167	-178,056	0,113	0,002
-727,152	550,940	-0,095	0,170
-726,137	-107,256	-0,106	0,017
-725,123	372,161	-0,052	0,079
-724,108	800,000	-0,024	-0,067
-723,094	176,879	-0,028	0,030
-722,079	-200,000	-0,014	-0,165
-721,064	70,037	-0,027	0,021
-720,050	301,539	-0,055	-0,075
-719,035	92,294	0,081	0,068
-718,021	800,000	0,067	-0,150
-717,006	-35,127	-0,140	-0,056
-715,991	-69,977	-0,109	-0,031
-714,977	7,724	-0,122	0,067
-713,962	176,179	-0,083	0,089
-712,948	328,796	-0,025	0,036
-711,933	-200,000	0,016	0,083
-710,918	392,570	-0,017	-0,027
-709,904	-169,682	-0,037	-0,001
-708,889	83,490	-0,064	0,052
-707,875	102,097	-0,209	-0,181
-706,860	-200,000	-0,065	0,000
-705,845	333,275	0,022	0,032
-704,831	-18,858	-0,121	0,056
-703,816	-185,708	0,030	-0,000
-702,802	573,686	-0,069	-0,126
-701,787	-200,000	0,009	-0,046
-700,772	-200,000	-0,016	-0,093
-699,758	-61,936	0,112	-0,035
-698,743	201,773	-0,053	0,060
-697,729	-47,736	-0,043	-0,015
-696,714	-200,000	-0,006	-0,064
-695,699	619,539	-0,048	-0,090
-694,685	-51,825	-0,090	-0,031
-693,670	220,012	-0,076	-0,090
-692,656	-200,000	-0,020	0,082
-691,641	-200,000	0,004	-0,046
-690,627	-44,163	0,031	-0,012
-689,612	-200,000	0,010	-0,084
-688,597	-200,000	-0,013	0,047
-687,583	17,593	-0,098	0,057
-686,568	19,918	-0,135	-0,081
-685,554	-117,682	-0,124	-0,016
-684,539	157,378	0,055	-0,056
-683,524	-99,327	-0,053	-0,010
-682,510	36,022	-0,029	0,019
-681,495	800,000	0,033	-0,079
-680,481	280,494	-0,106	0,141
-679,466	188,112	-0,033	0,037
-678,451	345,631	-0,063	0,092
-677,437	35,178	-0,014	0,009
-676,422	149,705	-0,042	-0,043
-675,408	-200,000	0,002	-0,068
-674,393	0,004	-0,041	0,021
-673,378	-200,000	-0,007	0,052
-672,364	-149,610	-0,195	0,011
-671,349	-140,549	-0,132	-0,010
-670,335	-57,769	0,097	0,031
-669,320	544,856	-0,060	0,108
-668,305	25,319	0,112	0,069
-667,291	-200,000	0,023	0,105
-666,276	-147,259	-0,068	0,004
-665,262	800,000	-0,026	0,060
-664,247	-200,000	-0,007	-0,090
-663,232	-200,000	0,022	-0,071
-662,218	510,804	0,025	0,043
-661,203	7,620	0,097	-0,054
-660,189	-22,813	-0,098	0,044
-659,174	56,657	-0,014	0,010
-658,159	19,077	0,097	-0,058
-657,145	800,000	-0,041	-0,090
-656,130	800,000	0,071	0,147
-655,116	-200,000	-0,009	0,039
-654,101	-200,000	-0,018	0,101
-653,086	196,523	0,050	0,056
-652,072	-93,885	-0,060	-0,012
-651,057	-200,000	-0,027	-0,099
-650,043	-200,000	-0,031	-0,148
-649,028	-200,000	0,019	0,113
-648,014	-51,445	-0,078	-0,027
-646,999	-200,000	-0,005	0,041
-645,984	21,651	-0,071	0,043
-644,970	191,852	0,126	0,141
-643,955	40,080	-0,155	-0,103
-642,941	-69,478	0,062	0,017
-641,926	357,783	0,034	-0,051
-640,911	353,792	-0,033	-0,048
-639,897	120,143	0,025	-0,023
-638,882	-103,764	-0,050	0,009
-637,868	800,000	0,021	-0,048
-636,853	800,000	-0,034	-0,080
-635,838	800,000	-0,027	-0,062
-634,824	245,749	0,128	-0,160
-633,809	-97,530	-0,042	-0,008
-632,795	-200,000	0,004	0,099
-631,780	800,000	0,056	0,159
-630,765	-179,431	-0,088	0,001
-629,751	184,028	0,112	0,123
-628,736	-31,916	-0,034	-0,014
-627,722	-31,964	0,095	0,039
-626,707	82,885	-0,023	0,019
-625,692	-115,259	0,068	-0,009
-624,678	-53,507	0,077	-0,026
-623,663	238,949	-0,048	0,059
-622,649	800,000	-0,042	-0,093
-621,634	498,262	0,027	-0,045
-620,619	-200,000	-0,006	0,143
-619,605	-200,000	-0,011	0,090
-618,590	-82,940	0,062	0,015
-617,576	800,000	0,023	0,056
-616,561	800,000	-0,043	-0,099
-615,546	-117,219	0,095	0,013
-614,532	17,180	0,032	0,019
-613,517	-65,987	-0,079	0,023
-612,503	-70,826	0,059	0,016
-611,488	-62,768	0,134	0,041
-610,474	274,408	-0,066	0,087
-609,459	-75,846	0,038	-0,010
-608,444	-30,175	-0,120	-0,050
-607,430	132,691	0,031	-0,030
-606,415	5,198	-0,093	0,051
-605,401	-200,000	-0,016	0,071
-604,386	118,313	0,069	0,063
-603,371	800,000	0,049	-0,115
-602,357	647,227	-0,030	-0,057
-601,342	-48,176	-0,038	0,013
-600,328	-131,077	-0,100	0,010
-599,313	455,882	-0,123	-0,202
-598,298	35,369	-0,040	0,026
-597,284	800,000	0,043	0,100
-596,269	-162,899	-0,052	0,002
-595,255	113,024	-0,081	-0,072
-594,240	800,000	-0,053	-0,142
-593,225	800,000	0,084	-0,175
-592,211	800,000	-0,078	-0,185
-591,196	-136,957	0,041	-0,003
-590,182	71,237	-0,188	0,144
-589,167	64,761	0,136	0,102
-588,152	-200,000	0,003	0,098
-587,138	-18,173	-0,097	0,045
-586,123	800,000	-0,048	-0,149
-585,109	800,000	-0,042	-0,097
-584,094	-93,491	-0,064	-0,013
-583,079	-200,000	0,019	-0,094
-582,065	-200,000	-0,009	-0,077
-581,050	8,809	-0,054	-0,030
-580,036	-25,478	0,164	0,071
-579,021	774,147	0,025	-0,050
-578,006	800,000	-0,024	-0,057
-576,992	-200,000	0,014	0,097
-575,977	108,956	-0,046	0,041
-574,963	-13,848	-0,127	0,060
-573,948	154,024	0,072	-0,073
-572,934	292,391	-0,145	-0,196
-571,919	-200,000	-0,007	-0,122
-570,904	800,000	0,014	0,031
-569,890	18,439	-0,078	-0,046
-568,875	95,614	-0,094	-0,079
-567,861	237,233	0,026	0,032
-566,846	0,992	0,098	0,052
-565,831	128,407	-0,089	0,084
-564,817	419,375	-0,046	-0,073
-563,802	88,801	-0,059	0,048
-562,788	-59,581	0,077	0,024
-561,773	-200,000	0,004	0,028
-560,758	-200,000	0,000	-0,012
-559,744	674,180	0,070	0,135
-558,729	140,163	-0,079	0,077
-557,715	-200,000	0,029	0,117
-556,700	15,346	0,062	0,036
-555,685	-200,000	0,026	-0,091
-554,671	800,000	0,034	-0,093
-553,656	800,000	-0,027	0,062
-552,642	-106,412	0,071	-0,012
-551,627	800,000	-0,005	-0,015
-550,612	-65,080	-0,030	0,009
-549,598	36,505	-0,125	-0,081
-548,583	-200,000	-0,030	0,124
-547,569	620,225	-0,094	0,175
-546,554	-136,850	0,144	0,012
-545,539	2,055	0,103	-0,055
-544,525	-200,000	0,003	-0,034
-543,510	95,227	0,049	-0,041
-542,496	800,000	-0,053	0,119
-541,481	148,236	-0,090	0,090
-540,466	453,771	-0,009	-0,015
-539,452	-9,177	0,159	0,078
-538,437	-32,715	0,085	0,035
-537,423	-2,603	-0,066	0,034
-536,408	800,000	-0,060	0,154
-535,393	9,201	-0,089	-0,049
-534,379	800,000	-0,025	0,069
-533,364	-200,000	-0,001	0,056
-532,350	-28,299	0,020	0,009
-531,335	425,661	0,034	0,054
-530,321	129,023	-0,058	-0,055
-529,306	16,036	-0,121	0,070
-528,291	39,816	0,160	-0,106
-527,277	-34,669	-0,048	-0,019
-526,262	432,259	-0,049	0,079
-525,248	792,744	-0,059	0,121
-524,233	164,405	0,029	0,030
-523,218	-200,000	-0,015	0,086
-522,204	-101,181	-0,042	-0,007
-521,189	10,374	0,055	-0,031
-520,175	-81,490	-0,042	-0,010
-519,160	-114,072	-0,070	-0,010
-518,145	9,130	0,085	0,047
-517,131	-67,663	-0,096	-0,028
-516,116	16,582	0,134	-0,078
-515,102	325,240	-0,050	-0,070
-514,087	123,143	0,044	0,041
-513,072	86,557	-0,058	-0,047
-512,058	-72,723	-0,055	0,015
-511,043	800,000	-0,025	0,054
-510,029	-200,000	0,002	-0,045
-509,014	-116,361	0,078	0,011
-507,999	-77,981	-0,076	0,019
-506,985	-145,112	-0,074	-0,005
-505,970	468,416	-0,102	-0,169
-504,956	61,574	0,062	0,045
-503,941	-53,579	-0,021	0,007
-502,926	-200,000	0,034	0,212
-501,912	-76,623	0,123	0,032
-500,897	-52,727	0,115	-0,039
-499,883	-115,608	0,193	0,026
-498,868	28,010	0,090	-0,056
-497,853	-200,000	0,000	0,047
-496,839	800,000	0,018	0,044
-495,824	-38,470	0,103	0,040
-494,810	105,602	0,070	-0,061
-493,795	-98,127	-0,083	0,016
-492,781	59,266	-0,051	0,037
-491,766	-200,000	0,039	0,156
-490,751	-200,000	-0,002	0,046
-489,737	298,940	0,025	0,033
-488,722	-28,411	0,159	-0,067
-487,708	800,000	0,028	0,091
-486,693	-22,053	0,058	-0,026
-485,678	-43,460	0,095	0,035
-484,664	139,766	0,047	-0,045
-483,649	104,898	-0,027	-0,023
-482,635	46,478	0,125	-0,085
-481,620	-200,000	0,042	-0,155
-480,605	-200,000	0,015	0,057
-479,591	230,636	0,080	0,097
-478,576	491,696	0,018	-0,030
-477,562	459,292	-0,050	-0,082
-476,547	40,899	-0,183	0,121
-475,532	30,870	-0,076	-0,048
-474,518	-124,620	-0,016	-0,002
-473,503	800,000	-0,042	-0,088
-472,489	-94,926	-0,106	-0,021
-471,474	-136,430	-0,082	0,007
-470,459	375,010	-0,084	-0,127
-469,445	30,920	-0,156	-0,098
-468,430	157,381	-0,080	-0,082
-467,416	-109,530	0,152	-0,023
-466,401	554,354	-0,056	0,100
-465,386	421,310	0,011	0,017
-464,372	800,000	-0,022	0,048
-463,357	-10,430	-0,045	0,022
-462,343	40,622	0,076	-0,050
-461,328	316,784	-0,037	-0,051
-460,313	-63,581	-0,066	0,020
-459,299	-54,741	0,052	0,017
-458,284	-26,958	0,088	-0,037
-457,270	209,000	-0,101	-0,117
-456,255	211,635	0,075	-0,086
-455,241	103,293	-0,101	-0,087
-454,226	588,648	-0,017	0,032
-453,211	63,897	-0,089	0,065
-452,197	-71,708	0,082	0,022
-451,182	177,050	-0,018	0,020
-450,168	-177,410	-0,098	-0,002
-449,153	-123,914	-0,151	-0,017
-448,138	-44,467	-0,200	0,073
-447,124	-16,059	-0,108	0,050
-446,109	-166,079	0,113	0,003
-445,095	-179,557	-0,110	0,002
-444,080	-43,833	-0,048	-0,018
-443,065	-200,000	-0,020	-0,160
-442,051	434,750	0,056	-0,090
-441,036	-200,000	0,015	-0,170
-440,022	-114,333	-0,125	0,017
-439,007	-129,157	0,168	0,017
-437,992	-32,944	0,141	-0,057
-436,978	58,219	0,068	0,049
-435,963	257,590	0,009	0,011
-434,949	-200,000	0,046	-0,210
-433,934	152,788	0,115	0,115
-432,919	65,718	-0,128	0,095
-431,905	27,115	-0,111	-0,068
-430,890	-200,000	-0,000	0,009
-429,876	661,551	0,060	-0,114
-428,861	-200,000	-0,009	0,042
-427,846	111,477	-0,112	0,099
-426,832	-200,000	-0,007	-0,047
-425,817	47,139	-0,158	-0,108
-424,803	797,232	-0,036	0,072
-423,788	1,253	-0,094	-0,050
-422,773	120,267	0,070	0,064
-421,759	78,970	0,062	-0,049
-420,744	138,112	0,030	0,029
-419,730	-200,000	-0,009	-0,069
-418,715	800,000	-0,070	-0,190
-417,701	-78,356	0,023	0,006
-416,686	30,292	0,116	-0,072
-415,671	-4,754	0,105	0,053
-414,657	-200,000	0,028	0,093
-413,642	800,000	0,023	-0,069
-412,628	-38,370	0,046	0,018
-411,613	-111,380	-0,070	0,010
-410,598	392,961	0,022	-0,033
-409,584	522,987	-0,013	-0,023
-408,569	548,734	0,033	0,058
-407,555	456,480	0,089	-0,145
-406,540	177,354	-0,076	0,081
-405,525	-17,729	-0,025	0,012
-404,511	73,257	0,152	-0,117
-403,496	-33,785	-0,077	-0,031
-402,482	-200,000	-0,030	-0,102
-401,467	-104,083	-0,192	-0,033
-400,452	-200,000	0,004	0,215
-399,438	-138,834	0,074	-0,006
-398,423	351,910	0,019	-0,028
-397,409	-72,111	-0,202	0,055
-396,394	511,235	0,018	0,030
-395,379	-200,000	0,010	0,050
-394,365	104,072	0,093	-0,080
-393,350	-20,411	-0,122	0,055
-392,336	800,000	-0,014	0,046
-391,321	-200,000	0,001	-0,092
-390,306	-125,708	-0,154	-0,017
-389,292	179,410	0,080	-0,086
-388,277	115,470	0,072	-0,064
-387,263	-140,725	-0,161	-0,012
-386,248	-200,000	-0,016	0,099
-385,233	43,371	0,155	0,104
-384,219	79,229	-0,112	-0,088
-383,204	800,000	-0,005	-0,014
-382,190	122,076	0,018	-0,016
-381,175	0,863	0,076	0,040
-380,160	199,667	-0,053	0,060
-379,146	800,000	0,040	-0,089
-378,131	-160,606	0,141	-0,005
-377,117	-200,000	0,003	-0,159
-376,102	152,947	-0,083	-0,083
-375,088	218,059	-0,018	-0,021
-374,073	-200,000	-0,006	-0,079
-373,058	-200,000	0,035	-0,114
-372,044	-59,464	-0,019	-0,006
-371,029	78,888	0,059	0,047
-370,015	-100,870	0,118	-0,021
-369,000	472,726	0,082	-0,136
-367,985	-200,000	0,030	-0,108
-366,971	800,000	0,036	0,102
-365,956	800,000	-0,036	0,092
-364,942	800,000	0,069	0,142
-363,927	-85,668	-0,075	0,017
-362,912	108,587	-0,048	0,042
-361,898	514,269	0,057	-0,099
-360,883	-32,796	-0,084	0,034
-359,869	-118,762	0,108	0,014
-358,854	-43,291	0,084	-0,031
-357,839	-187,432	0,146	0,001
-356,825	-101,915	0,084	-0,015
-355,810	-99,503	-0,108	-0,020
-354,796	160,330	-0,034	-0,035
-353,781	355,182	-0,049	0,072
-352,766	72,672	0,042	0,032
-351,752	800,000	0,043	0,113
-350,737	-200,000	-0,009	0,060
-349,723	6,974	0,093	0,050
-348,708	412,031	0,052	-0,082
-347,693	23,477	-0,111	-0,067
-346,679	155,528	-0,048	-0,049
-345,664	-74,048	-0,126	0,033
-344,650	9,993	-0,011	-0,006
-343,635	-84,101	0,124	0,029
-342,620	155,553	-0,073	0,074
-341,606	-200,000	-0,013	-0,068
-340,591	-27,776	-0,114	0,048
-339,577	223,489	0,083	0,098
-338,562	166,785	0,044	0,046
-337,548	-77,588	-0,094	0,024
-336,533	-174,392	0,147	-0,003
-335,518	-200,000	0,006	0,031
-334,504	-200,000	0,026	-0,137
-333,489	-13,456	-0,152	0,072
-332,475	261,742	-0,039	-0,050
-331,460	-200,000	0,022	-0,097
-330,445	114,348	0,110	-0,098
-329,431	-200,000	-0,002	-0,067
-328,416	385,856	-0,036	0,055
-327,402	93,823	0,061	0,050
-326,387	-200,000	-0,012	0,133
-325,372	-200,000	0,008	-0,057
-324,358	599,256	0,059	0,107
-323,343	167,165	-0,044	-0,046
-322,329	-68,180	0,019	-0,005
-321,314	800,000	-0,028	0,062
-320,299	258,772	0,031	-0,039
-319,285	-41,933	0,071	-0,027
-318,270	-20,133	-0,065	0,029
-317,256	17,381	-0,068	-0,039
-316,241	-117,308	0,021	0,003
-315,226	-200,000	0,021	0,072
-314,212	-200,000	-0,040	0,198
-313,197	-200,000	-0,007	-0,039
-312,183	-200,000	0,000	-0,041
-311,168	72,182	0,069	-0,052
-310,153	800,000	-0,068	-0,169
-309,139	-200,000	-0,032	-0,103
-308,124	483,151	0,053	0,088
-307,110	158,234	0,197	0,200
-306,095	-200,000	-0,007	0,032
-305,080	-147,609	-0,069	0,004
-304,066	-105,638	0,027	0,004
-303,051	-33,524	-0,159	-0,064
-302,037	314,456	-0,022	0,031
-301,022	92,566	0,051	-0,042
-300,008	-200,000	0,028	0,105
-298,993	-20,630	-0,080	-0,036
-297,978	87,043	0,107	-0,087
-296,964	85,863	-0,088	0,071
-295,949	291,756	-0,082	-0,110
-294,935	680,461	-0,053	0,102
-293,920	16,759	0,083	-0,048
-292,905	-200,000	0,006	-0,073
-291,891	404,924	-0,008	0,013
-290,876	-112,272	-0,013	-0,002
-289,862	-200,000	0,038	-0,162
-288,847	112,218	0,030	-0,026
-287,832	199,141	0,028	0,031
-286,818	71,904	0,105	-0,080
-285,803	-200,000	0,001	0,029
-284,789	-200,000	0,056	0,201
-283,774	-200,000	0,029	0,109
-282,759	-200,000	0,003	0,089
-281,745	800,000	-0,046	-0,113
-280,730	-140,556	-0,199	0,015
-279,716	-50,571	-0,060	0,020
-278,701	-87,037	-0,050	-0,011
-277,686	800,000	-0,020	-0,057
-276,672	428,072	0,025	0,039
-275,657	-87,143	-0,064	-0,014
-274,643	44,756	-0,043	-0,029
-273,628	-44,952	-0,096	0,035
-272,613	-170,107	0,068	-0,002
-271,599	-52,674	0,071	-0,024
-270,584	-11,433	0,116	0,056
-269,570	556,685	0,067	-0,118
-268,555	-6,915	0,084	-0,041
-267,540	9,791	-0,102	0,056
-266,526	-200,000	-0,011	0,095
-265,511	208,574	0,118	-0,135
-264,497	-110,747	0,036	-0,005
-263,482	-200,000	-0,043	0,175
-262,467	37,877	0,116	0,075
-261,453	172,946	-0,043	0,045
-260,438	-200,000	-0,020	-0,095
-259,424	487,917	-0,081	-0,135
-258,409	800,000	0,086	-0,178
-257,395	-200,000	0,015	-0,058
-256,380	46,531	0,078	-0,053
-255,365	114,539	0,090	0,080
-254,351	75,749	-0,062	0,047
-253,336	92,320	0,068	0,056
-252,322	-200,000	-0,032	0,172
-251,307	-83,490	0,173	-0,040
-250,292	-13,243	0,058	0,027
-249,278	-200,000	0,014	0,059
-248,263	415,835	0,028	0,044
-247,249	-200,000	-0,008	0,080
-246,234	-200,000	0,014	0,085
-245,219	465,100	0,060	-0,098
-244,205	800,000	-0,020	-0,046
-243,190	800,000	-0,027	0,056
-242,176	-36,630	0,017	0,007
-241,161	35,294	-0,052	0,033
-240,146	-25,020	-0,217	0,093
-239,132	-112,445	0,065	-0,009
-238,117	800,000	-0,057	-0,120
-237,103	-200,000	-0,152	-0,000
-236,088	-0,020	0,114	-0,059
-235,073	-134,276	0,206	0,018
-234,059	-200,000	0,071	-0,000
-233,044	58,097	-0,084	0,060
-232,030	-200,000	-0,011	0,051
-231,015	800,000	-0,056	-0,122
-230,000	-200,000	0,001	0,008
-228,986	800,000	0,038	-0,082
-227,971	800,000	-0,025	0,071
-226,957	-154,327	0,159	-0,008
-225,942	-143,039	0,056	-0,004
-224,927	-200,000	0,022	0,146
-223,913	-146,419	-0,088	0,005
-222,898	-44,024	0,117	0,043
-221,884	238,093	-0,049	0,059
-220,869	-200,000	-0,006	0,106
-219,855	-97,825	0,146	-0,027
-218,840	639,016	-0,016	0,031
-217,825	800,000	-0,017	0,054
-216,811	702,627	0,042	0,081
-215,796	-165,688	-0,045	0,001
-214,782	-75,126	-0,018	0,005
-213,767	246,570	-0,103	0,127
-212,752	363,127	0,107	0,158
-211,738	-185,778	0,030	0,000
-210,723	-4,247	0,117	-0,059
-209,709	-103,908	-0,081	0,014
-208,694	131,876	-0,052	0,049
-207,679	-176,183	0,070	-0,001
-206,665	-200,000	0,003	-0,150
-205,650	-200,000	-0,022	0,194
-204,636	-51,222	0,069	0,023
-203,621	-200,000	0,000	-0,038
-202,606	360,585	-0,066	0,097
-201,592	-34,262	-0,058	0,023
-200,577	256,062	0,065	-0,081
-199,563	120,556	-0,110	0,099
-198,548	663,829	0,073	-0,138
-197,533	586,125	0,036	-0,064
-196,519	277,039	0,032	-0,042
-195,504	409,253	0,007	-0,010
-194,490	396,219	0,042	0,065
-193,475	143,169	0,083	-0,080
-192,460	-200,000	-0,011	-0,158
-191,446	-200,000	-0,006	-0,023
-190,431	219,082	-0,023	0,027
-189,417	800,000	-0,024	-0,059
-188,402	90,373	0,144	-0,117
-187,387	-27,956	0,219	-0,092
-186,373	-200,000	0,001	-0,126
-185,358	27,816	-0,059	0,036
-184,344	-200,000	0,040	0,143
-183,329	152,629	-0,077	0,077
-182,315	800,000	-0,053	0,147
-181,300	-59,051	-0,076	0,024
-180,285	-44,769	0,063	0,023
-179,271	800,000	-0,050	-0,106
-178,256	542,567	0,011	-0,019
-177,242	107,367	-0,061	0,052
-176,227	800,000	0,062	0,150
-175,212	644,707	0,121	0,225
-174,198	-200,000	0,007	-0,060
-173,183	-52,310	-0,147	-0,049
-172,169	-200,000	-0,032	-0,158
-171,154	-200,000	0,044	-0,236
-170,139	158,883	-0,049	-0,049
-169,125	61,550	0,049	-0,035
-168,110	-200,000	-0,006	-0,052
-167,096	-200,000	-0,041	0,145
-166,081	-67,685	-0,040	-0,011
-165,066	-170,501	-0,044	-0,001
-164,052	-79,452	-0,093	-0,023
-163,037	133,592	0,104	-0,098
-162,023	373,679	-0,114	0,170
-161,008	800,000	0,008	0,018
-159,993	-47,231	-0,040	-0,014
-158,979	630,795	-0,110	-0,203
-157,964	224,689	0,064	-0,075
-156,950	-33,930	-0,084	0,034
-155,935	582,119	0,063	0,113
-154,920	41,775	-0,049	-0,032
-153,906	94,015	0,034	0,028
-152,891	800,000	0,037	0,082
-151,877	-117,578	-0,197	0,026
-150,862	-200,000	0,018	-0,066
-149,847	800,000	0,041	-0,094
-148,833	119,915	-0,042	-0,038
-147,818	323,655	0,039	0,054
-146,804	130,097	0,065	0,061
-145,789	-170,981	0,067	0,002
-144,775	-89,573	-0,071	-0,015
-143,760	415,819	0,065	-0,102
-142,745	25,444	0,133	-0,080
-141,731	-56,342	-0,046	0,015
-140,716	-200,000	-0,004	0,051
-139,702	-176,596	0,101	0,002
-138,687	800,000	-0,037	-0,080
-137,672	-40,998	0,113	-0,042
-136,658	150,271	-0,053	-0,052
-135,643	401,502	0,062	-0,095
-134,629	800,000	-0,029	0,073
-133,614	8,248	-0,069	-0,037
-132,599	-200,000	-0,030	0,113
-131,585	-200,000	0,030	0,099
-130,570	-200,000	0,007	-0,130
-129,556	-200,000	0,002	0,070
-128,541	-36,463	-0,047	0,018
-127,526	117,848	-0,069	-0,062
-126,512	800,000	0,015	0,033
-125,497	105,460	-0,084	0,072
-124,483	-113,224	-0,115	0,016
-123,468	-200,000	0,003	0,029
-122,453	530,066	-0,052	-0,090
-121,439	15,029	-0,110	-0,062
-120,424	-200,000	0,002	-0,043
-119,410	86,812	-0,130	0,104
