DTS Sentinel unit serial number:	SN410029Multiplexer serial number:	ORYXHardware model number:	OX2-SRSoftware version number:	ORYX F/W v4,00 Oryx Data Collector v3.7.2.0data status	okinstallation	B6 Nyhavnadifferential loss correction	single-endedforward channel	channel 2reverse channel	N/Adate	2023/12/09time	20:55:08forward acquisition time	300,00reverse acquisition time	0,00gamma	499,1914k internal	0,3128k external	0,3128temperature offset calibration	1,0000default loss term (dB/km)	0,3820temperature slope calibration	1,0000multiplexer offset coefficient	1,0000multiplexer slope coefficient	1,0000fibre end	0,00T internal ref (°C)	21,43T ext. ref 1 (°C)	5,39T ext. ref 2 (°C)	5,37length (m)	temperature (°C)	Stokes	anti-Stokes-744,400	533,498	0,086	-0,153
-743,385	-1,463	-0,158	0,083
-742,371	344,764	0,062	0,091
-741,356	295,571	-0,140	0,192
-740,342	-200,000	-0,003	0,096
-739,327	85,439	-0,270	0,221
-738,312	-200,000	-0,008	-0,057
-737,298	-144,976	-0,214	0,014
-736,283	-109,251	0,034	-0,005
-735,269	23,459	-0,164	0,100
-734,254	-64,444	0,031	0,009
-733,239	-135,580	-0,419	-0,037
-732,225	-66,454	0,151	0,044
-731,210	132,801	0,059	0,056
-730,196	537,875	0,073	0,130
-729,181	-52,595	-0,125	0,043
-728,167	267,678	-0,024	0,031
-727,152	-172,167	-0,068	0,002
-726,137	327,823	-0,105	-0,150
-725,123	372,002	-0,073	-0,110
-724,108	318,628	-0,038	-0,054
-723,094	49,074	-0,099	-0,069
-722,079	131,278	-0,129	-0,123
-721,064	-48,524	-0,036	-0,013
-720,050	-194,845	-0,094	-0,001
-719,035	-31,874	0,021	-0,009
-718,021	124,445	0,100	-0,094
-717,006	800,000	-0,042	0,090
-715,991	-200,000	-0,049	-0,162
-714,977	800,000	-0,050	-0,121
-713,962	361,769	-0,044	0,066
-712,948	24,186	0,026	0,016
-711,933	-200,000	0,001	-0,052
-710,918	-75,800	0,046	-0,012
-709,904	800,000	-0,045	-0,107
-708,889	-90,603	0,115	0,024
-707,875	46,708	-0,079	0,055
-706,860	800,000	0,041	-0,114
-705,845	257,862	0,053	-0,068
-704,831	-82,178	0,073	-0,018
-703,816	-46,180	-0,155	-0,056
-702,802	-67,840	-0,068	0,020
-701,787	-25,073	-0,063	-0,028
-700,772	-200,000	-0,021	-0,097
-699,758	-200,000	-0,029	-0,134
-698,743	-73,656	-0,083	0,022
-697,729	800,000	0,006	0,014
-696,714	770,426	-0,087	0,177
-695,699	-200,000	0,000	-0,014
-694,685	568,680	-0,001	-0,002
-693,670	-99,487	-0,110	-0,020
-692,656	87,623	-0,063	-0,052
-691,641	123,689	0,068	-0,064
-690,627	106,310	0,087	0,076
-689,612	-68,646	0,088	0,025
-688,597	84,377	0,035	-0,028
-687,583	-134,420	-0,144	-0,013
-686,568	7,985	0,104	0,058
-685,554	800,000	0,036	-0,110
-684,539	800,000	0,038	0,118
-683,524	18,331	-0,106	0,063
-682,510	-15,694	-0,160	-0,075
-681,495	-175,591	-0,067	0,001
-680,481	-101,294	0,053	0,010
-679,466	103,433	-0,057	-0,050
-678,451	-200,000	-0,005	-0,109
-677,437	-200,000	-0,017	-0,123
-676,422	274,895	-0,075	-0,098
-675,408	73,373	0,051	0,040
-674,393	800,000	-0,023	0,051
-673,378	-200,000	-0,018	-0,107
-672,364	-200,000	0,006	-0,042
-671,349	71,067	0,049	-0,038
-670,335	-42,790	0,051	0,019
-669,320	-71,258	0,043	-0,012
-668,305	130,878	0,065	0,062
-667,291	800,000	-0,032	0,070
-666,276	800,000	-0,035	-0,076
-665,262	800,000	0,058	-0,122
-664,247	280,635	0,055	0,073
-663,232	800,000	0,012	0,034
-662,218	50,190	0,107	0,075
-661,203	-74,557	0,026	0,007
-660,189	230,147	-0,071	-0,087
-659,174	-41,263	0,064	0,025
-658,159	111,343	0,065	0,058
-657,145	696,403	0,058	-0,113
-656,130	800,000	0,043	-0,106
-655,116	-200,000	0,009	-0,084
-654,101	-200,000	0,047	0,208
-653,086	176,534	0,014	-0,015
-652,072	-200,000	0,015	-0,114
-651,057	354,898	-0,105	-0,155
-650,043	-200,000	-0,004	0,050
-649,028	-94,059	-0,114	0,023
-648,014	-77,159	0,189	-0,049
-646,999	330,149	0,076	0,109
-645,984	-200,000	-0,004	0,042
-644,970	-200,000	0,001	-0,063
-643,955	13,334	-0,078	-0,045
-642,941	-200,000	-0,014	-0,075
-641,926	-96,675	0,117	0,023
-640,911	-88,440	0,075	-0,017
-639,897	800,000	0,029	0,090
-638,882	222,355	-0,105	0,126
-637,868	314,859	-0,095	0,133
-636,853	-200,000	0,037	-0,158
-635,838	800,000	-0,032	-0,068
-634,824	-200,000	-0,032	0,130
-633,809	-74,469	0,037	0,010
-632,795	-200,000	0,006	-0,114
-631,780	800,000	-0,026	-0,073
-630,765	800,000	-0,009	0,022
-629,751	5,632	0,051	0,028
-628,736	-200,000	-0,001	-0,069
-627,722	333,377	0,074	-0,107
-626,707	-200,000	0,007	0,129
-625,692	-150,824	-0,025	0,001
-624,678	-195,563	0,043	0,000
-623,663	-121,963	-0,061	0,007
-622,649	567,124	-0,076	-0,136
-621,634	800,000	-0,029	-0,087
-620,619	174,812	0,021	0,022
-619,605	-149,050	-0,119	0,007
-618,590	87,958	-0,114	0,094
-617,576	800,000	0,052	-0,163
-616,561	632,490	-0,072	-0,135
-615,546	800,000	-0,031	-0,098
-614,532	-100,648	0,045	0,008
-613,517	-19,831	0,126	-0,058
-612,503	800,000	0,029	-0,075
-611,488	59,296	0,080	-0,058
-610,474	-200,000	-0,001	-0,108
-609,459	18,344	-0,066	-0,039
-608,444	-200,000	-0,013	-0,090
-607,430	800,000	-0,020	-0,063
-606,415	-200,000	0,019	-0,092
-605,401	-200,000	0,000	0,216
-604,386	-124,601	0,077	-0,009
-603,371	-68,792	-0,038	0,011
-602,357	-61,659	-0,050	-0,015
-601,342	800,000	0,054	0,127
-600,328	272,230	-0,084	-0,110
-599,313	-57,482	0,134	0,043
-598,298	-200,000	0,012	0,057
-597,284	53,545	-0,037	0,026
-596,269	320,236	-0,081	0,114
-595,255	-200,000	-0,040	-0,150
-594,240	35,455	0,037	-0,024
-593,225	-85,820	-0,134	-0,031
-592,211	332,047	-0,026	0,037
-591,196	249,702	0,057	-0,071
-590,182	51,367	0,040	-0,028
-589,167	16,630	0,095	-0,056
-588,152	107,625	0,074	0,065
-587,138	-200,000	0,015	0,074
-586,123	130,054	-0,132	-0,125
-585,109	-200,000	0,000	-0,060
-584,094	-35,952	-0,051	0,020
-583,079	257,452	0,076	-0,097
-582,065	-200,000	-0,032	-0,119
-581,050	-200,000	-0,000	0,064
-580,036	-43,298	0,050	-0,019
-579,021	-200,000	-0,039	-0,196
-578,006	93,931	0,072	-0,060
-576,992	-94,460	-0,134	-0,027
-575,977	-191,765	0,169	0,001
-574,963	-200,000	-0,021	-0,098
-573,948	-200,000	-0,001	-0,132
-572,934	-21,850	0,032	-0,014
-571,919	-58,211	0,090	0,029
-570,904	800,000	-0,043	-0,107
-569,890	800,000	-0,018	0,040
-568,875	34,079	0,114	0,073
-567,861	800,000	0,020	-0,045
-566,846	-147,993	0,071	0,004
-565,831	-96,629	0,041	-0,008
-564,817	51,404	-0,166	0,117
-563,802	800,000	0,032	-0,088
-562,788	57,723	-0,039	-0,028
-561,773	-200,000	0,001	-0,022
-560,758	-200,000	-0,023	-0,095
-559,744	-200,000	-0,109	0,000
-558,729	-200,000	0,025	-0,104
-557,715	-107,431	0,056	-0,009
-556,700	-200,000	-0,015	-0,116
-555,685	22,393	-0,119	-0,072
-554,671	-132,138	-0,131	0,012
-553,656	-200,000	-0,014	0,143
-552,642	56,545	0,100	-0,072
-551,627	800,000	-0,027	-0,079
-550,612	350,038	0,041	-0,060
-549,598	614,219	0,026	0,049
-548,583	-200,000	0,003	0,067
-547,569	800,000	-0,033	-0,092
-546,554	-36,290	0,134	0,053
-545,539	800,000	-0,032	-0,077
-544,525	321,868	0,015	0,021
-543,510	-200,000	0,001	0,007
-542,496	-200,000	0,002	0,011
-541,481	-37,463	-0,086	0,034
-540,466	-200,000	0,009	-0,077
-539,452	368,589	-0,008	-0,011
-538,437	-200,000	0,016	0,106
-537,423	-200,000	-0,001	-0,018
-536,408	482,612	-0,046	-0,077
-535,393	217,165	-0,142	-0,167
-534,379	-0,081	-0,113	0,059
-533,364	88,989	0,012	0,010
-532,350	-46,889	0,117	0,042
-531,335	396,863	0,027	0,042
-530,321	392,528	-0,047	0,073
-529,306	-149,508	-0,068	0,004
-528,291	649,099	-0,030	-0,057
-527,277	182,555	0,053	-0,058
-526,262	800,000	-0,052	-0,116
-525,248	-169,117	-0,053	0,001
-524,233	-97,235	0,101	-0,019
-523,218	74,366	0,047	-0,036
-522,204	311,441	-0,068	0,095
-521,189	-75,987	-0,167	-0,043
-520,175	225,656	-0,061	-0,072
-519,160	-200,000	-0,012	-0,094
-518,145	800,000	-0,045	0,097
-517,131	-44,647	-0,094	0,034
-516,116	301,361	0,027	-0,037
-515,102	-118,299	-0,087	0,011
-514,087	71,413	-0,095	0,073
-513,072	-200,000	0,022	-0,142
-512,058	-200,000	0,024	-0,117
-511,043	320,657	-0,051	0,072
-510,029	-200,000	0,019	0,112
-509,014	245,577	0,083	0,103
-507,999	104,492	0,081	-0,070
-506,985	55,896	-0,082	-0,059
-505,970	69,279	-0,053	0,040
-504,956	-200,000	0,002	-0,131
-503,941	304,933	-0,016	-0,022
-502,926	800,000	-0,006	-0,015
-501,912	50,574	-0,027	0,019
-500,897	1,040	0,145	-0,077
-499,883	268,662	0,049	-0,063
-498,868	-76,151	-0,110	0,028
-497,853	-21,647	-0,149	-0,067
-496,839	-200,000	0,008	0,053
-495,824	-200,000	-0,002	-0,104
-494,810	281,094	0,058	-0,077
-493,795	-200,000	0,000	0,090
-492,781	-138,057	0,128	0,010
-491,766	-135,329	0,106	-0,009
-490,751	534,406	-0,018	-0,031
-489,737	-170,712	-0,127	-0,003
-488,722	148,105	0,078	0,077
-487,708	764,651	0,020	0,040
-486,693	-200,000	0,000	0,116
-485,678	800,000	0,073	-0,154
-484,664	-200,000	0,026	-0,089
-483,649	-21,820	-0,096	-0,043
-482,635	172,933	-0,026	0,028
-481,620	800,000	0,076	0,177
-480,605	471,358	0,037	0,062
-479,591	638,324	0,039	-0,074
-478,576	160,260	0,042	-0,044
-477,562	-200,000	0,007	0,067
-476,547	-69,419	-0,074	-0,021
-475,532	442,613	-0,038	0,061
-474,518	800,000	0,018	0,050
-473,503	800,000	0,046	0,098
-472,489	-110,712	0,087	0,013
-471,474	-134,173	0,047	-0,004
-470,459	196,181	-0,074	-0,083
-469,445	119,423	-0,007	-0,006
-468,430	-35,099	-0,075	0,030
-467,416	-133,672	0,103	0,009
-466,401	66,094	0,068	0,050
-465,386	-200,000	0,017	-0,056
-464,372	8,104	-0,099	0,054
-463,357	233,292	0,052	-0,063
-462,343	800,000	-0,034	0,079
-461,328	-9,325	-0,081	-0,040
-460,313	800,000	0,016	0,039
-459,299	141,559	-0,028	-0,027
-458,284	-53,180	-0,046	0,015
-457,270	-200,000	0,033	0,169
-456,255	555,842	-0,058	-0,104
-455,241	30,115	-0,179	-0,112
-454,226	800,000	0,009	-0,028
-453,211	24,629	-0,027	-0,016
-452,197	800,000	-0,034	0,102
-451,182	76,892	-0,106	0,082
-450,168	-200,000	-0,010	-0,053
-449,153	-97,471	-0,194	-0,037
-448,138	58,559	-0,009	-0,006
-447,124	800,000	-0,043	0,118
-446,109	228,547	0,079	0,094
-445,095	-200,000	-0,017	0,058
-444,080	-183,049	-0,101	-0,001
-443,065	-73,578	0,026	-0,007
-442,051	-55,810	-0,073	0,024
-441,036	203,956	-0,034	-0,039
-440,022	-200,000	0,013	-0,091
-439,007	800,000	0,072	-0,151
-437,992	-200,000	0,019	0,110
-436,978	115,942	0,053	0,047
-435,963	800,000	-0,039	0,094
-434,949	796,674	-0,053	0,107
-433,934	-166,382	0,032	0,001
-432,919	-9,053	0,033	-0,016
-431,905	2,037	0,087	-0,046
-430,890	-55,733	0,072	0,023
-429,876	-41,858	-0,103	0,039
-428,861	120,266	0,033	0,030
-427,846	-7,677	0,062	0,031
-426,832	-200,000	0,016	0,090
-425,817	163,667	0,003	-0,003
-424,803	162,318	0,036	0,037
-423,788	-113,920	0,119	0,017
-422,773	-200,000	-0,004	0,154
-421,759	-200,000	0,001	-0,005
-420,744	-200,000	0,041	-0,178
-419,730	-200,000	0,019	-0,069
-418,715	800,000	-0,027	-0,056
-417,701	363,222	0,092	-0,136
-416,686	-64,168	0,012	-0,003
-415,671	-61,791	0,189	0,058
-414,657	800,000	0,006	0,014
-413,642	-123,697	-0,031	0,004
-412,628	307,428	-0,054	0,075
-411,613	-127,729	-0,113	0,012
-410,598	617,157	0,041	0,077
-409,584	-200,000	-0,002	0,015
-408,569	451,303	0,069	0,112
-407,555	-41,026	-0,052	0,019
-406,540	55,281	0,046	-0,033
-405,525	-26,120	0,110	0,047
-404,511	50,198	-0,083	-0,057
-403,496	658,977	0,021	0,040
-402,482	90,048	0,109	0,089
-401,467	-21,516	0,106	0,047
-400,452	-62,737	0,094	0,028
-399,438	306,861	0,098	0,135
-398,423	800,000	-0,024	0,065
-397,409	24,541	0,081	0,049
-396,394	-154,142	-0,155	-0,008
-395,379	-73,276	-0,049	0,013
-394,365	-200,000	-0,012	0,112
-393,350	216,698	-0,088	0,103
-392,336	406,571	0,061	-0,095
-391,321	-38,401	-0,116	0,045
-390,306	800,000	0,023	-0,058
-389,292	273,007	-0,063	-0,082
-388,277	-200,000	0,002	0,018
-387,263	-200,000	0,013	-0,090
-386,248	-200,000	0,009	0,062
-385,233	500,349	0,080	0,136
-384,219	224,977	-0,070	-0,083
-383,204	45,809	-0,076	-0,051
-382,190	800,000	0,016	-0,044
-381,175	-115,894	-0,049	0,007
-380,160	-56,437	0,105	0,034
-379,146	-200,000	-0,003	0,013
-378,131	800,000	0,012	-0,031
-377,117	-200,000	-0,020	0,081
-376,102	-46,606	-0,053	0,019
-375,088	-200,000	-0,005	0,042
-374,073	109,209	0,017	-0,015
-373,058	79,319	0,072	-0,056
-372,044	-74,557	-0,008	-0,002
-371,029	800,000	-0,015	-0,041
-370,015	607,684	-0,039	0,073
-369,000	-100,740	-0,136	-0,024
-367,985	60,377	-0,033	-0,024
-366,971	51,615	0,060	0,042
-365,956	-110,125	0,058	-0,009
-364,942	-87,739	-0,117	-0,026
-363,927	21,081	0,130	0,077
-362,912	-22,937	-0,044	-0,019
-361,898	800,000	0,055	-0,115
-360,883	109,420	-0,105	-0,093
-359,869	800,000	-0,056	-0,122
-358,854	409,549	-0,067	0,105
-357,839	562,794	0,016	0,028
-356,825	-200,000	-0,041	0,291
-355,810	-25,964	0,075	-0,032
-354,796	766,474	-0,040	-0,079
-353,781	800,000	0,040	-0,089
-352,766	286,211	0,113	-0,149
-351,752	576,512	0,078	0,140
-350,737	-200,000	-0,011	-0,044
-349,723	-200,000	0,012	0,145
-348,708	-60,274	0,058	-0,018
-347,693	800,000	-0,077	0,214
-346,679	-110,953	0,104	0,016
-345,664	175,752	-0,075	-0,080
-344,650	69,968	0,051	-0,039
-343,635	-200,000	-0,036	0,139
-342,620	-168,797	0,184	0,005
-341,606	800,000	0,022	0,066
-340,591	-24,501	0,062	-0,027
-339,577	217,532	-0,047	0,055
-338,562	10,312	-0,122	-0,068
-337,548	102,148	-0,004	0,004
-336,533	186,273	0,061	0,066
-335,518	-200,000	0,002	-0,008
-334,504	7,671	-0,055	-0,030
-333,489	-93,350	-0,092	-0,018
-332,475	-34,437	0,096	-0,038
-331,460	-66,558	-0,219	-0,063
-330,445	-133,741	0,036	-0,003
-329,431	-76,457	0,082	-0,021
-328,416	800,000	0,053	0,157
-327,402	-200,000	0,038	0,154
-326,387	800,000	0,049	0,121
-325,372	31,622	0,057	-0,036
-324,358	-70,048	0,039	-0,011
-323,343	303,549	-0,046	-0,063
-322,329	800,000	0,038	-0,090
-321,314	17,730	0,056	0,033
-320,299	68,286	0,035	-0,026
-319,285	-200,000	-0,014	-0,189
-318,270	5,495	-0,129	-0,070
-317,256	264,709	0,082	0,105
-316,241	-200,000	0,019	0,125
-315,226	49,145	0,060	-0,041
-314,212	-200,000	0,026	-0,151
-313,197	90,666	-0,050	0,041
-312,183	85,782	-0,102	0,082
-311,168	-200,000	0,003	-0,066
-310,153	-200,000	-0,013	-0,112
-309,139	224,439	-0,173	-0,205
-308,124	-7,369	0,028	-0,014
-307,110	83,694	0,082	0,065
-306,095	-43,862	-0,054	0,020
-305,080	516,486	-0,026	0,045
-304,066	161,415	-0,050	0,051
-303,051	-121,225	-0,161	0,019
-302,037	92,900	-0,040	-0,033
-301,022	383,097	-0,015	-0,023
-300,008	-156,363	0,228	-0,010
-298,993	-61,623	-0,155	0,047
-297,978	800,000	-0,049	-0,152
-296,964	13,142	0,033	0,018
-295,949	18,960	-0,102	-0,060
-294,935	79,451	0,197	-0,154
-293,920	162,067	0,038	-0,039
-292,905	800,000	0,037	0,083
-291,891	800,000	0,011	0,022
-290,876	-200,000	0,009	-0,037
-289,862	57,877	0,067	0,048
-288,847	800,000	0,013	-0,035
-287,832	468,523	-0,073	-0,120
-286,818	16,344	0,099	0,057
-285,803	800,000	-0,015	0,033
-284,789	-49,034	-0,167	0,058
-283,774	738,156	0,060	0,119
-282,759	-49,042	-0,083	0,029
-281,745	-128,100	-0,091	-0,009
-280,730	-64,056	0,108	-0,032
-279,716	-124,245	-0,072	0,008
-278,701	800,000	0,032	0,087
-277,686	243,287	0,068	0,083
-276,672	-140,351	0,043	-0,003
-275,657	117,700	-0,009	0,008
-274,643	800,000	0,008	-0,024
-273,628	-200,000	0,001	0,091
-272,613	548,875	0,023	-0,040
-271,599	441,799	0,078	-0,125
-270,584	384,616	-0,062	-0,094
-269,570	50,941	0,074	0,051
-268,555	-7,050	-0,047	0,023
-267,540	77,733	-0,057	0,044
-266,526	-200,000	-0,020	-0,112
-265,511	385,814	-0,021	-0,032
-264,497	800,000	0,017	-0,044
-263,482	-150,116	0,172	-0,010
-262,467	91,630	0,023	0,019
-261,453	190,839	0,032	0,035
-260,438	-36,305	-0,078	0,031
-259,424	-58,038	-0,037	-0,012
-258,409	274,590	0,052	-0,067
-257,395	-200,000	-0,013	0,139
-256,380	-200,000	-0,001	0,153
-255,365	153,297	0,081	-0,081
-254,351	440,770	0,040	0,065
-253,336	508,498	-0,029	0,049
-252,322	-200,000	-0,022	0,109
-251,307	-196,415	0,042	-0,000
-250,292	139,761	0,090	0,087
-249,278	-200,000	0,015	0,085
-248,263	-91,000	0,135	-0,028
-247,249	-119,230	-0,069	-0,009
-246,234	733,895	-0,070	-0,137
-245,219	-51,532	0,097	-0,033
-244,205	800,000	0,029	0,059
-243,190	-47,634	0,135	-0,047
-242,176	234,953	0,069	-0,083
-241,161	-21,488	0,048	-0,021
-240,146	-200,000	0,014	0,217
-239,132	800,000	-0,033	0,077
-238,117	-200,000	-0,006	-0,098
-237,103	142,647	-0,104	-0,101
-236,088	62,502	-0,039	-0,028
-235,073	37,857	-0,067	-0,043
-234,059	-32,113	0,070	-0,028
-233,044	-137,719	-0,144	-0,012
-232,030	-12,339	0,023	-0,011
-231,015	-200,000	-0,018	-0,136
-230,000	107,861	0,093	0,081
-228,986	792,122	0,035	-0,070
-227,971	800,000	-0,045	-0,113
-226,957	800,000	0,013	0,031
-225,942	-200,000	-0,010	-0,112
-224,927	116,672	0,044	0,039
-223,913	143,776	-0,009	-0,009
-222,898	-200,000	0,004	-0,194
-221,884	23,250	0,033	-0,020
-220,869	297,536	0,082	0,110
-219,855	-47,467	-0,095	0,034
-218,840	149,130	-0,041	0,041
-217,825	800,000	0,042	0,101
-216,811	-92,048	0,114	-0,023
-215,796	146,840	-0,046	-0,046
-214,782	93,766	0,049	0,041
-213,767	-123,864	0,053	-0,006
-212,752	149,426	-0,104	0,103
-211,738	698,165	-0,055	0,107
-210,723	800,000	0,013	-0,039
-209,709	103,509	-0,041	0,035
-208,694	273,009	0,047	0,061
-207,679	432,889	-0,140	-0,222
-206,665	-42,558	-0,038	-0,014
-205,650	631,920	-0,028	0,053
-204,636	-200,000	-0,002	-0,008
-203,621	-200,000	0,000	0,058
-202,606	800,000	-0,014	-0,031
-201,592	195,696	-0,036	0,040
-200,577	85,402	-0,134	0,107
-199,563	52,604	-0,056	0,039
-198,548	152,828	0,002	-0,002
-197,533	-36,898	0,137	0,053
-196,519	-178,512	0,163	-0,003
-195,504	-154,579	-0,122	0,006
-194,490	-200,000	0,001	0,038
-193,475	-200,000	0,040	0,141
-192,460	287,018	-0,080	0,106
-191,446	-94,424	0,119	-0,023
-190,431	25,609	-0,120	0,072
-189,417	-200,000	0,024	-0,092
-188,402	-62,486	0,065	-0,020
-187,387	-200,000	-0,014	0,058
-186,373	43,838	0,043	-0,029
-185,358	-200,000	-0,041	0,153
-184,344	-200,000	0,055	0,215
-183,329	8,324	0,104	0,057
-182,315	-18,471	-0,104	0,047
-181,300	-108,515	-0,192	-0,030
-180,285	90,624	0,043	0,035
-179,271	-71,250	-0,147	-0,040
-178,256	80,755	0,105	-0,082
-177,242	66,276	0,128	-0,095
-176,227	-16,678	0,066	-0,030
-175,212	-200,000	0,004	0,119
-174,198	-200,000	0,008	0,077
-173,183	-200,000	0,024	-0,085
-172,169	426,666	-0,039	-0,061
-171,154	143,594	0,058	-0,056
-170,139	-7,560	0,052	-0,025
-169,125	800,000	-0,034	0,076
-168,110	457,140	-0,079	0,129
-167,096	-57,932	0,060	0,019
-166,081	-151,160	-0,038	0,002
-165,066	800,000	-0,022	-0,072
-164,052	800,000	-0,077	0,189
-163,037	380,116	-0,058	0,087
-162,023	800,000	-0,007	0,019
-161,008	48,268	0,060	0,041
-159,993	-200,000	-0,009	0,032
-158,979	800,000	-0,075	-0,177
-157,964	-134,711	-0,141	0,012
-156,950	185,286	0,098	0,106
-155,935	-115,914	0,213	0,029
-154,920	-200,000	-0,012	0,088
-153,906	228,828	0,039	0,047
-152,891	-200,000	-0,012	-0,065
-151,877	800,000	0,079	0,177
-150,862	-99,602	0,027	0,005
-149,847	127,817	-0,141	0,131
-148,833	-200,000	0,040	0,219
-147,818	322,792	0,040	-0,055
-146,804	144,298	0,093	-0,090
-145,789	-200,000	-0,022	0,159
-144,775	800,000	-0,076	0,157
-143,760	48,223	-0,116	-0,079
-142,745	62,138	0,116	0,084
-141,731	308,751	0,071	-0,097
-140,716	127,026	0,047	-0,043
-139,702	248,149	0,029	0,035
-138,687	116,754	-0,105	0,093
-137,672	-58,721	-0,104	-0,033
-136,658	12,913	-0,093	-0,052
-135,643	800,000	-0,027	-0,059
-134,629	-32,024	0,077	0,031
-133,614	-89,638	0,140	-0,030
-132,599	800,000	-0,016	0,050
-131,585	800,000	-0,048	0,104
-130,570	663,776	0,026	-0,049
-129,556	-10,406	0,051	-0,025
-128,541	-200,000	0,001	-0,064
-127,526	52,441	-0,051	-0,036
-126,512	-200,000	-0,031	0,160
-125,497	751,765	-0,107	0,210
-124,483	586,728	0,023	0,042
-123,468	-200,000	0,006	-0,044
-122,453	-200,000	-0,008	-0,039
-121,439	211,127	-0,092	0,105
-120,424	227,086	0,094	-0,111
-119,410	-200,000	0,023	-0,083
-118,395	637,439	0,064	-0,118
