DTS Sentinel unit serial number:	SN410029Multiplexer serial number:	ORYXHardware model number:	OX2-SRSoftware version number:	ORYX F/W v4,00 Oryx Data Collector v3.7.2.0data status	okinstallation	B6 Nyhavnadifferential loss correction	single-endedforward channel	channel 2reverse channel	N/Adate	2023/12/10time	16:55:08forward acquisition time	300,00reverse acquisition time	0,00gamma	499,1914k internal	0,3123k external	0,3123temperature offset calibration	1,0000default loss term (dB/km)	0,3820temperature slope calibration	1,0000multiplexer offset coefficient	1,0000multiplexer slope coefficient	1,0000fibre end	0,00T internal ref (°C)	22,40T ext. ref 1 (°C)	6,15T ext. ref 2 (°C)	6,17length (m)	temperature (°C)	Stokes	anti-Stokes-744,400	-200,000	-0,002	-0,012
-743,385	-76,679	-0,246	0,064
-742,371	-28,747	0,099	-0,042
-741,356	186,839	-0,097	0,108
-740,342	-200,000	0,004	0,062
-739,327	-67,804	-0,360	0,104
-738,312	-200,000	0,002	-0,055
-737,298	73,031	-0,207	0,161
-736,283	-200,000	-0,003	-0,081
-735,269	33,047	-0,119	0,077
-734,254	800,000	0,063	-0,194
-733,239	-114,725	-0,404	-0,057
-732,225	-94,587	0,105	0,021
-731,210	800,000	0,031	0,070
-730,196	-200,000	0,019	-0,088
-729,181	17,343	-0,111	-0,066
-728,167	-55,020	0,117	0,039
-727,152	-200,000	-0,001	-0,129
-726,137	-200,000	-0,024	-0,095
-725,123	800,000	-0,028	-0,077
-724,108	59,378	-0,066	-0,049
-723,094	800,000	-0,052	-0,144
-722,079	-38,931	-0,134	-0,052
-721,064	-200,000	0,044	-0,154
-720,050	38,705	-0,061	0,041
-719,035	-52,313	0,032	0,011
-718,021	538,495	-0,062	-0,110
-717,006	744,917	0,031	-0,063
-715,991	53,128	-0,118	-0,084
-714,977	-200,000	0,013	0,096
-713,962	219,471	-0,122	0,145
-712,948	-77,612	0,143	0,036
-711,933	-155,670	-0,103	0,005
-710,918	-2,315	-0,139	0,073
-709,904	-200,000	-0,014	0,193
-708,889	-160,621	-0,163	0,006
-707,875	5,459	0,061	0,033
-706,860	-200,000	-0,018	0,102
-705,845	-42,042	-0,023	-0,009
-704,831	-200,000	-0,015	-0,064
-703,816	-15,762	0,100	0,047
-702,802	-9,692	-0,130	0,064
-701,787	141,308	-0,054	-0,053
-700,772	721,734	0,023	0,046
-699,758	-200,000	-0,017	0,066
-698,743	29,014	-0,111	-0,070
-697,729	129,569	-0,106	0,100
-696,714	167,676	0,033	0,035
-695,699	654,685	-0,042	-0,081
-694,685	77,277	-0,042	0,033
-693,670	-127,946	-0,021	0,002
-692,656	626,251	0,052	-0,098
-691,641	-67,299	0,024	0,007
-690,627	-60,259	0,093	0,029
-689,612	-112,676	-0,077	-0,011
-688,597	-200,000	-0,014	0,106
-687,583	-100,484	0,079	0,014
-686,568	-5,013	0,068	-0,035
-685,554	9,225	-0,060	0,034
-684,539	800,000	0,023	-0,048
-683,524	-200,000	-0,007	-0,028
-682,510	-200,000	0,021	-0,102
-681,495	800,000	-0,055	-0,127
-680,481	-126,918	-0,139	0,015
-679,466	800,000	-0,052	-0,108
-678,451	-200,000	-0,011	-0,105
-677,437	-19,686	-0,113	0,052
-676,422	43,081	-0,064	0,044
-675,408	-83,794	0,069	-0,016
-674,393	800,000	0,010	-0,022
-673,378	-56,210	-0,103	-0,034
-672,364	37,122	0,065	-0,043
-671,349	-82,910	-0,065	-0,015
-670,335	146,257	-0,053	-0,053
-669,320	-200,000	0,037	0,150
-668,305	-200,000	0,019	-0,082
-667,291	454,618	-0,015	-0,025
-666,276	229,183	0,045	-0,055
-665,262	-200,000	-0,026	-0,160
-664,247	57,487	-0,073	-0,053
-663,232	5,729	0,063	-0,034
-662,218	449,898	-0,030	0,050
-661,203	557,253	0,075	0,135
-660,189	-59,909	0,042	-0,013
-659,174	800,000	0,053	-0,109
-658,159	800,000	0,010	-0,027
-657,145	-200,000	-0,005	-0,017
-656,130	-17,934	-0,072	0,033
-655,116	800,000	0,034	0,084
-654,101	-200,000	0,017	-0,091
-653,086	-47,160	0,083	0,030
-652,072	-200,000	0,004	-0,112
-651,057	429,949	-0,074	-0,120
-650,043	800,000	-0,055	-0,123
-649,028	-200,000	-0,006	-0,055
-648,014	395,834	-0,069	-0,107
-646,999	-200,000	-0,018	0,095
-645,984	140,934	-0,060	-0,059
-644,970	-24,506	-0,057	0,025
-643,955	37,038	-0,072	-0,047
-642,941	800,000	0,056	-0,147
-641,926	150,806	0,022	-0,022
-640,911	661,610	0,004	0,009
-639,897	-200,000	0,016	0,106
-638,882	-136,070	0,071	-0,006
-637,868	321,708	-0,067	0,095
-636,853	-52,761	-0,108	-0,037
-635,838	-200,000	-0,002	-0,098
-634,824	78,576	0,137	-0,109
-633,809	800,000	-0,037	0,101
-632,795	-200,000	-0,002	-0,010
-631,780	-62,040	-0,090	-0,028
-630,765	-46,114	0,090	-0,033
-629,751	51,725	-0,121	-0,085
-628,736	-37,366	-0,153	-0,060
-627,722	256,439	0,030	-0,039
-626,707	18,289	-0,070	0,041
-625,692	800,000	0,062	0,198
-624,678	78,292	-0,064	0,050
-623,663	-118,548	-0,037	-0,005
-622,649	-200,000	-0,017	-0,236
-621,634	-64,409	0,098	0,029
-620,619	20,889	-0,077	-0,046
-619,605	-70,417	0,028	0,008
-618,590	39,300	-0,042	-0,028
-617,576	513,413	0,041	0,072
-616,561	-200,000	-0,093	-0,000
-615,546	-200,000	0,028	-0,099
-614,532	800,000	0,026	-0,058
-613,517	-200,000	-0,003	-0,024
-612,503	-144,641	-0,090	0,006
-611,488	-200,000	-0,007	0,089
-610,474	203,658	-0,043	0,049
-609,459	728,973	0,034	0,068
-608,444	-165,666	-0,137	0,004
-607,430	-154,558	-0,120	0,006
-606,415	40,454	-0,073	0,048
-605,401	75,419	0,028	-0,022
-604,386	437,878	0,053	0,086
-603,371	-200,000	-0,038	0,180
-602,357	-200,000	0,011	0,099
-601,342	664,952	0,018	0,036
-600,328	-92,006	-0,025	-0,005
-599,313	-200,000	0,009	-0,048
-598,298	-73,429	-0,042	-0,011
-597,284	-42,739	0,082	0,031
-596,269	92,511	0,040	-0,034
-595,255	21,150	0,054	-0,032
-594,240	-200,000	-0,001	-0,197
-593,225	800,000	-0,070	-0,165
-592,211	40,400	-0,070	-0,047
-591,196	-26,480	0,131	0,057
-590,182	536,761	-0,043	0,075
-589,167	800,000	-0,057	-0,120
-588,152	800,000	0,030	-0,066
-587,138	-200,000	-0,011	0,072
-586,123	-200,000	-0,006	-0,101
-585,109	-52,085	-0,007	0,002
-584,094	97,754	-0,145	-0,123
-583,079	-118,908	0,098	-0,013
-582,065	634,866	-0,023	-0,043
-581,050	-4,716	-0,114	0,058
-580,036	316,399	-0,026	0,036
-579,021	5,862	-0,087	-0,048
-578,006	56,286	-0,098	-0,070
-576,992	365,144	0,068	-0,101
-575,977	425,215	-0,034	-0,055
-574,963	-61,087	-0,059	0,018
-573,948	-126,965	-0,013	0,001
-572,934	136,165	0,117	-0,113
-571,919	112,729	-0,079	-0,071
-570,904	800,000	-0,074	-0,160
-569,890	800,000	0,015	0,048
-568,875	-200,000	0,021	0,093
-567,861	151,034	0,172	0,173
-566,846	-200,000	0,011	0,073
-565,831	9,839	-0,048	0,027
-564,817	280,407	0,064	-0,085
-563,802	-139,189	-0,100	-0,008
-562,788	-116,000	0,074	0,010
-561,773	218,868	0,077	-0,091
-560,758	-55,840	0,049	0,016
-559,744	800,000	0,049	0,143
-558,729	109,762	-0,012	0,010
-557,715	800,000	-0,049	-0,127
-556,700	-94,799	-0,008	-0,002
-555,685	-87,942	0,149	-0,033
-554,671	-200,000	-0,015	-0,082
-553,656	230,991	0,042	0,051
-552,642	-52,431	0,083	-0,028
-551,627	-65,089	-0,098	-0,029
-550,612	43,958	0,027	0,018
-549,598	-70,905	-0,062	0,017
-548,583	100,786	0,105	-0,091
-547,569	800,000	-0,007	0,021
-546,554	194,293	-0,063	-0,071
-545,539	-200,000	-0,024	0,141
-544,525	156,405	-0,124	0,127
-543,510	47,212	0,083	-0,057
-542,496	-200,000	0,000	-0,050
-541,481	137,373	0,018	-0,018
-540,466	-200,000	0,009	-0,111
-539,452	155,146	-0,092	0,094
-538,437	-200,000	-0,030	-0,104
-537,423	376,067	0,048	0,073
-536,408	99,575	-0,062	0,053
-535,393	-181,679	-0,156	-0,002
-534,379	-200,000	-0,022	0,133
-533,364	265,241	0,054	-0,070
-532,350	-200,000	-0,021	0,083
-531,335	708,312	-0,072	-0,142
-530,321	9,816	-0,052	-0,029
-529,306	800,000	-0,037	0,083
-528,291	-200,000	0,003	-0,052
-527,277	440,008	0,019	-0,031
-526,262	-5,474	-0,060	-0,031
-525,248	135,459	-0,081	0,078
-524,233	-119,253	0,179	0,023
-523,218	-98,683	0,065	0,012
-522,204	-62,114	0,165	0,051
-521,189	330,660	-0,038	-0,054
-520,175	-31,178	0,147	-0,061
-519,160	-200,000	0,031	-0,114
-518,145	-200,000	-0,021	0,138
-517,131	299,864	0,042	0,057
-516,116	434,437	0,050	0,080
-515,102	767,655	-0,040	-0,081
-514,087	114,920	-0,037	0,034
-513,072	58,765	-0,138	-0,100
-512,058	48,044	-0,117	-0,081
-511,043	800,000	0,029	0,089
-510,029	-18,856	0,035	0,016
-509,014	528,527	0,039	-0,068
-507,999	-100,868	-0,062	0,011
-506,985	76,354	-0,116	-0,091
-505,970	-200,000	-0,042	-0,167
-504,956	-7,184	-0,074	-0,037
-503,941	800,000	0,017	0,054
-502,926	212,530	0,099	-0,115
-501,912	-200,000	0,019	-0,083
-500,897	123,406	-0,110	0,102
-499,883	-200,000	0,008	-0,126
-498,868	-71,442	-0,045	0,012
-497,853	-68,738	0,042	0,012
-496,839	123,583	-0,017	-0,015
-495,824	-78,174	0,116	-0,029
-494,810	310,076	0,057	0,079
-493,795	-200,000	0,022	0,145
-492,781	484,941	0,062	-0,105
-491,766	572,687	0,036	0,066
-490,751	-158,343	0,123	-0,005
-489,737	399,661	0,033	0,051
-488,722	134,907	0,091	0,088
-487,708	800,000	-0,051	0,143
-486,693	-200,000	-0,001	0,005
-485,678	-200,000	0,023	0,077
-484,664	80,611	0,069	0,055
-483,649	613,327	-0,031	-0,058
-482,635	257,760	0,031	-0,040
-481,620	157,163	0,065	0,066
-480,605	-117,444	0,146	-0,019
-479,591	705,643	-0,044	-0,086
-478,576	-200,000	-0,003	0,033
-477,562	-168,753	-0,115	-0,003
-476,547	-200,000	-0,028	-0,102
-475,532	-99,585	-0,125	-0,023
-474,518	77,423	-0,010	-0,008
-473,503	-114,012	0,084	0,012
-472,489	-15,890	-0,070	0,033
-471,474	565,469	0,064	0,114
-470,459	-104,687	-0,121	-0,020
-469,445	178,874	0,034	0,036
-468,430	80,395	0,097	-0,077
-467,416	-200,000	0,024	0,078
-466,401	77,707	0,020	0,016
-465,386	-200,000	-0,001	-0,088
-464,372	263,529	0,059	-0,075
-463,357	-200,000	-0,003	-0,048
-462,343	-11,694	-0,096	-0,046
-461,328	800,000	0,022	-0,069
-460,313	525,708	-0,010	-0,017
-459,299	-105,856	-0,021	-0,003
-458,284	-82,316	0,041	0,010
-457,270	-126,142	-0,036	-0,004
-456,255	-200,000	-0,009	-0,037
-455,241	-200,000	0,038	-0,181
-454,226	-200,000	0,009	0,059
-453,211	-200,000	-0,015	0,061
-452,197	-25,139	0,079	0,035
-451,182	800,000	0,047	0,150
-450,168	800,000	0,013	-0,029
-449,153	-88,435	0,127	0,028
-448,138	-200,000	0,005	-0,026
-447,124	729,745	-0,048	-0,095
-446,109	509,933	0,020	0,035
-445,095	-85,517	0,185	0,042
-444,080	800,000	0,027	0,074
-443,065	147,612	0,083	0,082
-442,051	-200,000	0,008	-0,078
-441,036	92,225	-0,050	-0,041
-440,022	132,260	0,014	-0,013
-439,007	-200,000	-0,014	-0,143
-437,992	135,347	0,077	0,074
-436,978	121,115	0,138	0,127
-435,963	800,000	0,079	-0,196
-434,949	219,491	0,038	-0,044
-433,934	12,423	-0,104	0,059
-432,919	354,314	-0,049	-0,073
-431,905	8,329	-0,047	-0,026
-430,890	175,840	0,095	-0,101
-429,876	5,915	0,056	0,030
-428,861	64,975	-0,046	0,034
-427,846	30,302	-0,051	0,032
-426,832	800,000	0,039	0,101
-425,817	123,197	-0,048	0,045
-424,803	44,795	-0,022	0,015
-423,788	3,506	-0,017	0,009
-422,773	21,418	0,114	0,068
-421,759	67,238	0,211	0,158
-420,744	58,137	0,110	0,079
-419,730	497,611	-0,067	0,114
-418,715	800,000	-0,072	-0,155
-417,701	-200,000	-0,004	-0,157
-416,686	-131,863	0,066	-0,006
-415,671	778,358	0,044	0,089
-414,657	127,692	0,144	0,135
-413,642	-138,041	-0,075	0,006
-412,628	-4,182	0,117	-0,060
-411,613	105,788	-0,158	-0,137
-410,598	495,388	-0,075	0,127
-409,584	-52,797	0,140	0,047
-408,569	243,857	0,037	-0,046
-407,555	89,074	0,096	0,079
-406,540	571,248	0,064	-0,116
-405,525	70,410	0,036	-0,027
-404,511	52,436	-0,071	0,050
-403,496	717,557	0,023	-0,045
-402,482	-85,962	-0,101	-0,023
-401,467	446,398	0,055	0,090
-400,452	-69,093	0,160	0,045
-399,438	-200,000	0,010	0,032
-398,423	7,340	-0,051	0,028
-397,409	-148,775	-0,078	-0,005
-396,394	773,864	-0,056	-0,113
-395,379	-200,000	0,012	0,184
-394,365	331,355	-0,069	0,098
-393,350	-81,543	0,053	-0,013
-392,336	-71,152	0,114	-0,031
-391,321	-200,000	0,004	-0,117
-390,306	800,000	0,043	-0,090
-389,292	169,053	-0,105	-0,111
-388,277	-200,000	0,015	-0,100
-387,263	365,343	0,029	0,043
-386,248	36,906	0,106	0,069
-385,233	423,032	0,027	0,043
-384,219	-200,000	-0,047	-0,192
-383,204	-27,784	-0,097	0,041
-382,190	154,669	-0,033	-0,033
-381,175	-23,343	0,079	0,035
-380,160	261,112	0,060	0,077
-379,146	-147,003	0,030	-0,002
-378,131	-140,203	-0,011	0,001
-377,117	-200,000	-0,019	-0,081
-376,102	184,141	-0,090	-0,098
-375,088	800,000	0,039	-0,100
-374,073	-59,604	-0,049	0,015
-373,058	-0,403	0,099	0,051
-372,044	387,232	0,054	0,083
-371,029	92,437	-0,084	-0,069
-370,015	-91,113	-0,081	0,017
-369,000	132,158	0,094	-0,089
-367,985	-65,194	-0,139	-0,041
-366,971	-31,886	0,055	-0,023
-365,956	-45,909	-0,054	0,019
-364,942	-2,196	-0,020	0,010
-363,927	116,221	-0,045	0,041
-362,912	144,102	0,041	-0,040
-361,898	800,000	0,031	-0,087
-360,883	37,303	0,047	0,031
-359,869	-200,000	0,004	-0,029
-358,854	-111,857	0,084	-0,012
-357,839	-200,000	0,005	0,132
-356,825	12,690	-0,069	0,039
-355,810	8,295	-0,044	-0,024
-354,796	79,932	0,095	-0,075
-353,781	-62,478	-0,041	-0,013
-352,766	-125,983	0,042	-0,005
-351,752	84,773	0,043	0,035
-350,737	800,000	-0,020	0,055
-349,723	142,045	-0,117	0,114
-348,708	-200,000	-0,021	0,112
-347,693	-60,857	-0,067	0,021
-346,679	559,353	0,028	-0,050
-345,664	459,650	-0,042	0,068
-344,650	-200,000	-0,006	-0,042
-343,635	48,375	0,088	-0,060
-342,620	-56,905	-0,039	-0,012
-341,606	800,000	-0,028	0,079
-340,591	800,000	0,040	0,096
-339,577	52,460	-0,049	0,034
-338,562	-5,470	-0,091	0,046
-337,548	-95,105	-0,095	-0,019
-336,533	-152,929	0,009	-0,000
-335,518	19,413	-0,117	0,069
-334,504	800,000	0,038	-0,096
-333,489	11,480	-0,134	-0,075
-332,475	-89,070	-0,050	0,011
-331,460	-200,000	0,008	0,094
-330,445	5,325	0,056	0,030
-329,431	383,366	0,037	0,056
-328,416	373,051	0,025	0,037
-327,402	-200,000	0,015	-0,051
-326,387	-1,171	0,051	-0,026
-325,372	173,164	-0,062	-0,065
-324,358	-200,000	-0,004	-0,091
-323,343	-200,000	-0,005	-0,107
-322,329	-111,675	0,056	0,008
-321,314	-200,000	0,006	0,043
-320,299	-99,408	0,139	-0,025
-319,285	800,000	-0,021	0,055
-318,270	112,571	-0,042	0,037
-317,256	223,651	-0,028	0,033
-316,241	800,000	-0,039	0,111
-315,226	232,355	0,030	-0,037
-314,212	-60,238	0,083	0,026
-313,197	-200,000	0,005	-0,033
-312,183	67,452	0,032	-0,024
-311,168	82,725	0,084	-0,067
-310,153	237,375	-0,072	-0,088
-309,139	20,842	-0,081	0,048
-308,124	-200,000	0,002	0,016
-307,110	142,680	0,104	-0,102
-306,095	80,263	0,100	-0,079
-305,080	799,492	0,013	0,026
-304,066	-59,479	0,074	-0,023
-303,051	-200,000	-0,010	-0,079
-302,037	-54,484	0,076	-0,025
-301,022	-56,194	0,145	0,047
-300,008	-0,668	0,042	-0,022
-298,993	322,593	0,074	-0,104
-297,978	669,317	-0,027	0,052
-296,964	266,348	-0,023	0,030
-295,949	383,758	0,020	-0,030
-294,935	-52,842	-0,176	0,059
-293,920	253,162	-0,023	-0,029
-292,905	-200,000	-0,007	0,075
-291,891	178,555	0,061	0,066
-290,876	23,060	0,035	0,021
-289,862	-200,000	0,022	-0,080
-288,847	-200,000	0,047	-0,288
-287,832	202,475	-0,040	0,045
-286,818	208,808	-0,058	-0,066
-285,803	134,936	-0,153	0,145
-284,789	-27,972	0,092	0,039
-283,774	-200,000	-0,018	0,160
-282,759	316,589	0,078	-0,108
-281,745	-200,000	-0,004	-0,064
-280,730	19,137	-0,212	-0,124
-279,716	40,198	-0,017	0,011
-278,701	-83,456	-0,084	0,020
-277,686	-118,538	0,106	-0,014
-276,672	-200,000	0,043	0,239
-275,657	800,000	0,043	0,138
-274,643	-181,927	-0,071	0,001
-273,628	-50,331	-0,058	0,020
-272,613	213,148	-0,022	-0,025
-271,599	100,900	0,069	0,058
-270,584	-98,391	0,113	0,021
-269,570	261,340	-0,047	-0,059
-268,555	-46,740	0,098	0,035
-267,540	-200,000	-0,027	0,117
-266,526	61,600	-0,101	-0,074
-265,511	347,030	0,048	-0,069
-264,497	800,000	0,046	0,130
-263,482	437,543	0,119	0,190
-262,467	43,536	0,048	0,032
-261,453	800,000	0,044	0,109
-260,438	-147,970	-0,157	0,009
-259,424	576,196	0,044	-0,078
-258,409	643,624	0,032	-0,059
-257,395	78,075	0,031	0,024
-256,380	58,563	-0,086	0,061
-255,365	38,906	0,051	-0,033
-254,351	-29,122	0,056	0,023
-253,336	-86,088	0,114	-0,025
-252,322	152,807	-0,072	-0,072
-251,307	800,000	-0,034	-0,085
-250,292	110,595	0,092	0,081
-249,278	-200,000	0,009	0,139
-248,263	800,000	-0,010	0,028
-247,249	458,660	-0,103	0,168
-246,234	-200,000	0,005	0,036
-245,219	800,000	0,027	0,075
-244,205	-73,540	0,063	0,017
-243,190	-200,000	0,030	-0,115
-242,176	-13,081	0,014	-0,007
-241,161	-20,552	-0,048	-0,022
-240,146	-200,000	0,025	-0,119
-239,132	-200,000	-0,026	0,104
-238,117	-11,583	-0,131	-0,063
-237,103	94,864	-0,046	-0,038
-236,088	365,031	0,057	0,084
-235,073	95,913	0,039	-0,032
-234,059	399,152	0,037	0,057
-233,044	91,816	-0,024	-0,020
-232,030	7,527	-0,068	0,037
-231,015	-200,000	-0,038	-0,150
-230,000	710,359	-0,035	-0,068
-228,986	21,991	-0,096	-0,057
-227,971	335,541	0,082	-0,116
-226,957	11,156	-0,077	0,043
-225,942	566,492	0,049	0,087
-224,927	-200,000	-0,001	0,078
-223,913	-27,208	-0,082	0,035
-222,898	4,471	0,044	-0,023
-221,884	800,000	0,010	-0,030
-220,869	319,825	0,012	0,016
-219,855	401,438	0,057	0,087
-218,840	-200,000	-0,021	0,088
-217,825	-200,000	-0,032	0,110
-216,811	-200,000	-0,002	-0,057
-215,796	800,000	0,048	-0,122
-214,782	30,826	-0,037	0,023
-213,767	121,699	-0,067	-0,061
-212,752	326,405	-0,045	-0,064
-211,738	-200,000	-0,009	0,084
-210,723	-74,211	-0,060	-0,016
-209,709	417,272	-0,046	0,072
-208,694	75,186	-0,027	0,021
-207,679	-66,933	-0,204	0,058
-206,665	-88,721	0,100	-0,022
-205,650	800,000	0,032	-0,100
-204,636	-24,009	0,073	-0,032
-203,621	56,681	-0,045	-0,032
-202,606	53,634	-0,085	0,059
-201,592	-123,467	-0,170	-0,020
-200,577	68,731	-0,126	0,094
-199,563	-71,396	0,040	0,011
-198,548	-25,469	0,103	-0,044
-197,533	-131,949	0,165	0,016
-196,519	6,686	-0,083	0,045
-195,504	-102,203	-0,060	0,010
-194,490	-25,661	0,087	-0,037
-193,475	-87,189	-0,104	-0,023
-192,460	800,000	0,054	0,116
-191,446	800,000	-0,017	-0,052
-190,431	-200,000	-0,026	0,100
-189,417	-27,890	0,116	-0,049
-188,402	800,000	-0,027	-0,058
-187,387	184,502	-0,063	-0,069
-186,373	201,803	-0,025	0,028
-185,358	-200,000	0,015	-0,108
-184,344	800,000	0,020	0,054
-183,329	-200,000	0,023	0,116
-182,315	-200,000	-0,002	0,087
-181,300	-200,000	-0,008	-0,087
-180,285	142,285	0,019	0,019
-179,271	30,058	-0,089	-0,055
-178,256	200,211	-0,031	-0,035
-177,242	-200,000	0,026	0,156
-176,227	-54,136	-0,132	0,043
-175,212	132,300	-0,075	0,071
-174,198	-161,673	0,045	-0,002
-173,183	-79,974	0,093	0,023
-172,169	-200,000	0,014	-0,133
-171,154	134,889	-0,074	0,070
-170,139	-200,000	0,006	0,026
-169,125	6,043	0,041	-0,022
-168,110	800,000	0,040	0,096
-167,096	176,633	-0,073	0,077
-166,081	101,447	0,030	-0,026
-165,066	800,000	0,035	-0,077
-164,052	-200,000	0,003	0,165
-163,037	-20,910	-0,055	-0,025
-162,023	160,955	0,042	0,043
-161,008	800,000	0,079	0,187
-159,993	-37,894	0,032	0,013
-158,979	-200,000	0,058	-0,207
-157,964	58,705	-0,085	-0,061
-156,950	-12,675	-0,037	0,017
-155,935	289,559	-0,065	-0,086
-154,920	-200,000	0,017	0,117
-153,906	-200,000	-0,015	0,085
-152,891	343,215	-0,018	0,026
-151,877	463,999	0,051	-0,083
-150,862	-88,977	-0,208	-0,044
-149,847	-143,054	-0,120	0,008
-148,833	153,719	0,080	-0,079
-147,818	800,000	0,046	0,099
-146,804	-110,032	-0,047	-0,007
-145,789	-200,000	0,030	0,132
-144,775	-64,584	-0,214	-0,063
-143,760	211,114	0,056	-0,064
-142,745	57,601	-0,115	-0,081
-141,731	800,000	0,023	0,065
-140,716	152,070	0,109	0,108
-139,702	34,910	0,048	-0,030
-138,687	725,614	0,044	0,086
-137,672	-200,000	0,016	-0,057
-136,658	-200,000	0,004	0,020
-135,643	520,732	-0,020	-0,034
-134,629	75,015	-0,135	-0,104
-133,614	-200,000	-0,008	0,036
-132,599	279,306	-0,048	-0,062
-131,585	-92,108	0,069	0,014
-130,570	-200,000	0,034	0,204
-129,556	-54,300	0,044	-0,014
-128,541	800,000	-0,011	-0,031
-127,526	87,841	-0,056	-0,045
-126,512	-100,232	0,073	-0,013
-125,497	-2,739	-0,096	-0,049
-124,483	153,002	0,025	-0,024
-123,468	-200,000	0,007	0,119
-122,453	-56,743	0,082	0,026
-121,439	391,379	-0,056	0,085
-120,424	-195,798	-0,066	-0,000
-119,410	285,754	-0,065	0,086
-118,395	-4,755	0,096	-0,048
-117,380	63,752	0,061	-0,044
