DTS Sentinel unit serial number:	SN410029Multiplexer serial number:	ORYXHardware model number:	OX2-SRSoftware version number:	ORYX F/W v4,00 Oryx Data Collector v3.7.2.0data status	okinstallation	B6 Nyhavnadifferential loss correction	single-endedforward channel	channel 2reverse channel	N/Adate	2023/12/10time	12:45:08forward acquisition time	300,00reverse acquisition time	0,00gamma	499,1914k internal	0,3123k external	0,3123temperature offset calibration	1,0000default loss term (dB/km)	0,3820temperature slope calibration	1,0000multiplexer offset coefficient	1,0000multiplexer slope coefficient	1,0000fibre end	0,00T internal ref (°C)	22,80T ext. ref 1 (°C)	6,56T ext. ref 2 (°C)	6,58length (m)	temperature (°C)	Stokes	anti-Stokes-744,400	-104,396	0,060	0,010
-743,385	261,175	-0,077	0,100
-742,371	189,433	0,084	-0,094
-741,356	-72,574	-0,207	0,057
-740,342	-200,000	-0,011	-0,051
-739,327	-21,492	-0,303	0,137
-738,312	-200,000	-0,001	0,108
-737,298	-31,888	-0,344	0,143
-736,283	687,163	-0,039	0,076
-735,269	-18,750	-0,192	-0,089
-734,254	629,278	-0,056	-0,107
-733,239	-142,666	-0,467	-0,034
-732,225	-200,000	-0,012	0,072
-731,210	-200,000	-0,001	0,023
-730,196	800,000	0,033	0,081
-729,181	-41,337	-0,142	0,054
-728,167	-62,077	0,077	0,024
-727,152	-24,079	-0,134	-0,059
-726,137	800,000	-0,040	-0,100
-725,123	-200,000	-0,011	-0,196
-724,108	-127,566	-0,118	0,013
-723,094	52,356	-0,099	-0,070
-722,079	-200,000	-0,017	-0,084
-721,064	-200,000	-0,010	-0,045
-720,050	51,336	-0,046	0,032
-719,035	-200,000	-0,003	-0,075
-718,021	616,356	-0,058	-0,110
-717,006	-110,700	0,044	0,007
-715,991	800,000	-0,093	-0,219
-714,977	48,106	0,028	-0,019
-713,962	329,456	0,102	0,146
-712,948	84,865	0,076	-0,062
-711,933	53,416	-0,023	0,017
-710,918	-200,000	0,011	-0,138
-709,904	800,000	-0,031	-0,072
-708,889	310,402	0,046	-0,065
-707,875	-200,000	-0,018	-0,086
-706,860	139,382	-0,092	-0,090
-705,845	-14,210	-0,059	-0,028
-704,831	-70,828	-0,028	-0,008
-703,816	225,649	0,030	-0,036
-702,802	62,997	-0,031	-0,023
-701,787	-9,174	-0,038	0,019
-700,772	-200,000	-0,005	0,064
-699,758	-69,240	0,058	0,017
-698,743	142,248	-0,116	-0,115
-697,729	329,646	-0,092	0,133
-696,714	190,578	0,075	-0,084
-695,699	-74,920	-0,129	0,034
-694,685	800,000	-0,031	-0,099
-693,670	-200,000	-0,007	-0,069
-692,656	101,429	0,031	-0,027
-691,641	800,000	0,063	-0,139
-690,627	-48,517	0,121	-0,043
-689,612	-113,313	-0,076	0,011
-688,597	140,764	0,039	0,038
-687,583	37,925	-0,063	-0,041
-686,568	-200,000	-0,028	-0,098
-685,554	345,852	-0,049	-0,072
-684,539	800,000	0,067	0,152
-683,524	245,146	-0,080	0,100
-682,510	800,000	-0,043	0,120
-681,495	231,501	-0,054	0,066
-680,481	-81,221	-0,058	-0,014
-679,466	-200,000	0,016	-0,090
-678,451	-200,000	0,009	-0,063
-677,437	-117,313	0,099	-0,013
-676,422	-174,543	0,168	-0,004
-675,408	-25,626	0,049	-0,021
-674,393	-200,000	0,011	-0,105
-673,378	309,809	0,115	-0,161
-672,364	-25,234	-0,091	-0,040
-671,349	800,000	-0,045	-0,128
-670,335	-28,864	-0,072	0,031
-669,320	-155,904	0,140	0,007
-668,305	800,000	0,014	-0,045
-667,291	800,000	0,007	0,017
-666,276	125,430	-0,092	-0,086
-665,262	-100,640	0,080	0,015
-664,247	421,405	-0,036	-0,058
-663,232	-24,625	-0,021	-0,009
-662,218	8,274	-0,098	-0,055
-661,203	720,068	-0,033	0,065
-660,189	-200,000	0,014	-0,062
-659,174	-200,000	0,026	-0,163
-658,159	664,713	-0,086	-0,165
-657,145	36,221	-0,083	-0,054
-656,130	3,871	-0,154	-0,083
-655,116	45,622	-0,073	-0,050
-654,101	106,054	-0,080	0,070
-653,086	296,119	-0,065	0,088
-652,072	251,879	-0,061	-0,078
-651,057	-39,522	-0,153	0,059
-650,043	-16,794	-0,075	-0,035
-649,028	-200,000	-0,003	-0,027
-648,014	-116,874	0,153	-0,021
-646,999	-97,170	-0,075	-0,014
-645,984	-123,398	-0,116	-0,014
-644,970	-200,000	0,025	-0,115
-643,955	-13,716	-0,072	0,034
-642,941	-114,537	-0,112	-0,016
-641,926	-6,620	-0,077	-0,039
-640,911	-78,749	-0,088	0,022
-639,897	-200,000	-0,000	0,054
-638,882	800,000	0,035	0,108
-637,868	-122,986	-0,198	0,023
-636,853	-200,000	-0,021	-0,092
-635,838	800,000	0,021	-0,056
-634,824	-6,013	-0,093	-0,047
-633,809	800,000	-0,028	-0,078
-632,795	800,000	0,084	0,204
-631,780	-200,000	0,023	-0,076
-630,765	800,000	0,032	0,094
-629,751	800,000	0,034	-0,096
-628,736	800,000	-0,040	-0,090
-627,722	93,823	-0,140	0,117
-626,707	185,265	0,043	-0,048
-625,692	800,000	-0,003	0,009
-624,678	800,000	-0,069	0,195
-623,663	79,076	-0,009	-0,007
-622,649	102,045	-0,062	-0,054
-621,634	363,305	-0,038	-0,057
-620,619	800,000	-0,021	0,061
-619,605	-200,000	-0,014	-0,120
-618,590	559,839	0,028	-0,051
-617,576	-200,000	-0,011	0,055
-616,561	-200,000	-0,004	0,096
-615,546	31,503	0,099	0,063
-614,532	-200,000	-0,016	-0,089
-613,517	16,396	0,094	-0,055
-612,503	19,212	0,032	-0,019
-611,488	81,125	-0,043	-0,034
-610,474	111,138	-0,041	-0,037
-609,459	-107,196	-0,029	0,005
-608,444	-200,000	-0,026	-0,145
-607,430	437,356	-0,041	-0,066
-606,415	69,573	0,050	-0,039
-605,401	-200,000	0,015	0,059
-604,386	800,000	-0,008	-0,022
-603,371	606,897	0,025	-0,047
-602,357	-33,928	0,078	0,032
-601,342	800,000	0,030	0,086
-600,328	-200,000	-0,010	-0,109
-599,313	-66,278	-0,153	0,045
-598,298	422,733	0,078	-0,125
-597,284	312,746	0,097	0,135
-596,269	387,565	-0,015	0,023
-595,255	-46,944	0,086	-0,031
-594,240	-116,969	0,092	0,012
-593,225	-88,666	-0,183	-0,040
-592,211	-200,000	-0,012	-0,114
-591,196	214,894	0,053	-0,062
-590,182	-101,077	0,145	-0,026
-589,167	-117,746	0,098	-0,013
-588,152	-200,000	0,014	0,094
-587,138	135,103	0,103	0,099
-586,123	546,041	0,039	-0,069
-585,109	-94,739	-0,104	-0,021
-584,094	425,157	0,005	-0,008
-583,079	-200,000	-0,024	-0,104
-582,065	42,196	0,051	-0,034
-581,050	41,903	0,047	-0,031
-580,036	-127,042	-0,089	-0,010
-579,021	800,000	-0,014	-0,041
-578,006	800,000	-0,019	0,041
-576,992	800,000	-0,035	-0,092
-575,977	-18,800	-0,036	-0,016
-574,963	38,886	-0,015	-0,010
-573,948	-89,411	0,058	-0,012
-572,934	800,000	0,046	0,127
-571,919	-82,674	-0,083	-0,020
-570,904	194,090	-0,079	-0,089
-569,890	-200,000	0,018	-0,157
-568,875	800,000	-0,051	-0,164
-567,861	-82,627	0,064	-0,015
-566,846	-200,000	-0,027	0,123
-565,831	-28,099	-0,062	0,026
-564,817	-50,600	-0,023	-0,008
-563,802	-200,000	-0,046	-0,178
-562,788	580,559	-0,087	-0,158
-561,773	240,025	0,082	-0,101
-560,758	399,060	-0,027	0,042
-559,744	289,761	0,066	0,088
-558,729	163,971	-0,093	-0,097
-557,715	-200,000	-0,003	-0,067
-556,700	139,990	0,091	-0,088
-555,685	-121,761	-0,046	0,006
-554,671	-200,000	-0,006	-0,084
-553,656	-125,288	-0,065	-0,007
-552,642	-176,227	-0,037	-0,001
-551,627	110,369	-0,031	-0,027
-550,612	800,000	-0,025	-0,063
-549,598	-200,000	0,009	-0,068
-548,583	-200,000	0,002	-0,195
-547,569	-200,000	-0,015	0,099
-546,554	413,323	-0,036	0,056
-545,539	96,408	0,100	0,085
-544,525	231,487	-0,022	-0,026
-543,510	84,825	-0,070	0,057
-542,496	-60,469	-0,134	-0,042
-541,481	-200,000	-0,035	-0,118
-540,466	54,335	0,062	0,044
-539,452	-200,000	-0,026	0,157
-538,437	566,075	-0,051	0,092
-537,423	722,242	0,021	-0,042
-536,408	-41,564	-0,055	-0,021
-535,393	-200,000	0,020	-0,169
-534,379	-200,000	-0,009	0,034
-533,364	-9,768	-0,063	-0,031
-532,350	-200,000	-0,007	-0,041
-531,335	-4,125	0,104	0,053
-530,321	-200,000	0,007	-0,060
-529,306	60,812	-0,080	0,059
-528,291	-108,352	-0,108	-0,017
-527,277	-200,000	0,015	-0,063
-526,262	-200,000	0,011	0,111
-525,248	-82,541	-0,083	-0,020
-524,233	58,297	0,074	-0,053
-523,218	-118,952	-0,051	0,007
-522,204	106,255	0,049	-0,043
-521,189	-200,000	-0,007	0,052
-520,175	-200,000	-0,002	0,040
-519,160	-31,821	-0,036	-0,015
-518,145	-10,290	-0,020	0,010
-517,131	-16,205	0,037	0,017
-516,116	18,602	0,069	0,041
-515,102	-200,000	0,006	-0,058
-514,087	-200,000	-0,003	-0,061
-513,072	-200,000	0,021	-0,085
-512,058	-79,656	0,066	-0,016
-511,043	800,000	0,046	-0,149
-510,029	-59,318	0,173	0,055
-509,014	-58,648	0,056	0,018
-507,999	800,000	0,028	0,085
-506,985	92,219	0,040	-0,034
-505,970	800,000	-0,028	-0,061
-504,956	242,458	-0,029	-0,035
-503,941	-48,876	0,046	-0,016
-502,926	-65,504	0,177	-0,052
-501,912	-200,000	0,031	-0,131
-500,897	-200,000	-0,003	-0,015
-499,883	162,905	-0,100	-0,104
-498,868	81,998	-0,091	0,072
-497,853	-200,000	-0,022	-0,083
-496,839	-71,697	0,065	0,018
-495,824	-69,823	0,156	-0,044
-494,810	54,089	-0,094	0,067
-493,795	-139,285	-0,049	0,004
-492,781	21,471	0,076	0,046
-491,766	4,805	0,073	-0,039
-490,751	-200,000	-0,018	-0,124
-489,737	-200,000	0,023	-0,117
-488,722	-200,000	0,015	0,075
-487,708	512,505	0,022	0,038
-486,693	266,050	-0,055	-0,071
-485,678	-100,621	0,043	0,008
-484,664	-50,148	-0,075	0,026
-483,649	-67,197	-0,065	-0,019
-482,635	-124,324	-0,093	0,011
-481,620	-142,167	-0,031	-0,002
-480,605	-152,907	0,075	-0,004
-479,591	800,000	0,065	0,204
-478,576	-200,000	0,010	0,049
-477,562	2,844	0,098	-0,052
-476,547	342,954	0,015	0,022
-475,532	-6,254	-0,102	-0,051
-474,518	-160,844	0,148	0,006
-473,503	-200,000	0,008	0,052
-472,489	-97,502	-0,113	0,022
-471,474	71,082	0,027	-0,021
-470,459	-200,000	0,003	0,043
-469,445	-95,268	0,038	0,008
-468,430	-89,174	0,123	0,027
-467,416	-32,392	0,057	-0,023
-466,401	800,000	0,032	0,078
-465,386	-200,000	0,006	0,094
-464,372	43,009	-0,041	-0,028
-463,357	727,501	0,050	-0,099
-462,343	-106,886	-0,075	0,012
-461,328	455,533	-0,027	0,045
-460,313	-200,000	0,016	-0,123
-459,299	-200,000	-0,019	-0,119
-458,284	84,133	-0,004	-0,003
-457,270	800,000	-0,017	0,039
-456,255	538,171	0,075	0,132
-455,241	-71,783	-0,046	-0,013
-454,226	31,096	-0,108	-0,068
-453,211	16,460	0,096	0,055
-452,197	-50,161	0,046	0,016
-451,182	-68,863	0,085	0,024
-450,168	74,007	-0,038	-0,029
-449,153	131,694	-0,060	-0,057
-448,138	-200,000	0,027	-0,086
-447,124	-200,000	0,017	-0,095
-446,109	-200,000	0,023	-0,111
-445,095	-200,000	0,026	-0,147
-444,080	162,299	-0,015	0,016
-443,065	2,584	-0,060	0,032
-442,051	-70,102	-0,096	-0,027
-441,036	139,164	0,022	-0,021
-440,022	16,069	-0,136	-0,079
-439,007	-36,170	-0,069	-0,027
-437,992	-43,014	0,036	-0,013
-436,978	-94,234	-0,047	0,009
-435,963	30,195	0,091	0,057
-434,949	-116,505	-0,048	-0,006
-433,934	85,407	0,051	0,041
-432,919	-66,917	-0,203	-0,059
-431,905	171,231	0,041	0,043
-430,890	330,411	0,083	0,118
-429,876	221,781	-0,104	0,123
-428,861	-200,000	0,019	0,110
-427,846	-34,091	0,222	0,089
-426,832	-30,335	-0,094	0,039
-425,817	244,955	-0,031	0,038
-424,803	582,516	0,013	-0,023
-423,788	-33,726	0,044	0,018
-422,773	-13,468	0,212	0,101
-421,759	109,859	0,010	-0,009
-420,744	35,405	-0,085	0,055
-419,730	211,982	-0,022	0,026
-418,715	242,008	-0,057	-0,070
-417,701	-200,000	0,003	-0,088
-416,686	100,073	0,098	0,084
-415,671	46,268	-0,031	-0,021
-414,657	800,000	0,027	0,058
-413,642	-200,000	0,015	-0,062
-412,628	278,245	-0,068	-0,089
-411,613	-184,435	-0,025	-0,000
-410,598	28,330	-0,046	-0,028
-409,584	-10,023	-0,119	-0,058
-408,569	95,308	-0,027	0,023
-407,555	-109,028	0,106	0,016
-406,540	-100,421	0,188	0,034
-405,525	800,000	-0,047	-0,126
-404,511	-33,826	-0,050	0,020
-403,496	156,346	0,080	0,081
-402,482	-116,446	0,158	0,021
-401,467	49,872	0,111	0,077
-400,452	-200,000	-0,022	0,124
-399,438	98,477	-0,035	0,030
-398,423	-83,938	-0,117	-0,027
-397,409	153,631	-0,163	-0,164
-396,394	-200,000	0,001	-0,108
-395,379	-200,000	-0,001	0,047
-394,365	92,401	-0,010	-0,008
-393,350	-110,862	0,127	-0,019
-392,336	800,000	-0,019	0,056
-391,321	-103,884	-0,190	-0,032
-390,306	72,117	0,102	0,078
-389,292	-200,000	0,014	-0,119
-388,277	-17,142	-0,076	-0,035
-387,263	-57,637	0,168	-0,054
-386,248	267,558	0,115	0,148
-385,233	520,451	-0,078	0,135
-384,219	-200,000	-0,002	0,082
-383,204	-200,000	0,006	-0,071
-382,190	575,691	-0,094	-0,169
-381,175	-100,036	0,038	-0,007
-380,160	-65,413	0,103	0,030
-379,146	-33,750	-0,017	0,007
-378,131	800,000	0,039	0,114
-377,117	-2,495	-0,116	0,060
-376,102	-200,000	0,021	-0,101
-375,088	210,540	0,061	-0,071
-374,073	-53,962	0,070	-0,023
-373,058	214,376	-0,066	0,077
-372,044	800,000	0,026	0,069
-371,029	60,763	0,096	0,070
-370,015	-200,000	-0,030	-0,142
-369,000	-200,000	0,018	-0,087
-367,985	88,449	0,136	-0,111
-366,971	31,080	-0,023	0,014
-365,956	90,530	0,073	0,060
-364,942	-61,611	0,067	0,021
-363,927	-49,130	-0,095	0,033
-362,912	-200,000	-0,003	-0,031
-361,898	-200,000	0,002	0,006
-360,883	74,279	-0,074	-0,057
-359,869	-80,933	-0,101	-0,024
-358,854	-86,637	-0,105	-0,023
-357,839	7,006	0,079	-0,043
-356,825	123,169	-0,010	0,009
-355,810	-143,682	-0,083	0,006
-354,796	-100,038	-0,015	0,003
-353,781	-200,000	0,024	-0,090
-352,766	-134,627	-0,082	0,007
-351,752	-200,000	0,033	0,119
-350,737	75,836	0,106	-0,082
-349,723	-175,604	-0,048	0,001
-348,708	261,077	0,113	0,143
-347,693	-200,000	0,013	0,113
-346,679	366,102	-0,071	-0,106
-345,664	351,076	-0,021	0,031
-344,650	800,000	0,073	0,152
-343,635	144,053	0,078	0,077
-342,620	-200,000	-0,006	-0,033
-341,606	-13,505	-0,069	-0,033
-340,591	-3,112	0,122	-0,062
-339,577	-200,000	0,002	-0,018
-338,562	78,425	-0,039	-0,030
-337,548	78,189	-0,067	-0,052
-336,533	219,166	-0,039	0,046
-335,518	-5,502	0,082	0,041
-334,504	-105,407	0,060	0,010
-333,489	74,876	-0,066	-0,051
-332,475	260,861	-0,032	0,041
-331,460	-75,194	-0,134	-0,035
-330,445	550,563	-0,018	0,032
-329,431	-42,206	-0,096	-0,036
-328,416	105,791	0,054	-0,047
-327,402	-115,187	0,024	0,003
-326,387	528,234	-0,050	-0,086
-325,372	368,998	-0,057	-0,085
-324,358	-200,000	0,006	0,117
-323,343	-14,900	0,082	-0,038
-322,329	195,929	0,073	-0,082
-321,314	-200,000	-0,011	0,051
-320,299	-112,112	0,115	-0,017
-319,285	159,441	-0,032	0,032
-318,270	-200,000	-0,009	0,162
-317,256	-71,486	0,060	0,016
-316,241	679,704	0,056	0,107
-315,226	649,296	-0,038	0,071
-314,212	800,000	-0,029	0,084
-313,197	5,070	0,051	-0,028
-312,183	628,184	0,030	0,056
-311,168	800,000	-0,047	-0,102
-310,153	-137,807	-0,124	-0,010
-309,139	464,062	0,007	0,011
-308,124	-53,635	0,066	0,022
-307,110	11,876	-0,012	0,007
-306,095	800,000	0,038	0,096
-305,080	-154,984	0,104	0,005
-304,066	-49,614	-0,127	0,044
-303,051	800,000	0,050	-0,112
-302,037	33,214	-0,078	-0,050
-301,022	800,000	-0,022	0,058
-300,008	293,600	-0,064	0,086
-298,993	-82,103	0,099	-0,023
-297,978	283,674	-0,073	-0,096
-296,964	145,757	-0,140	0,137
-295,949	-137,296	-0,111	0,009
-294,935	-200,000	-0,007	-0,055
-293,920	800,000	-0,028	0,067
-292,905	-200,000	0,009	0,199
-291,891	609,020	0,045	0,082
-290,876	-156,338	-0,109	0,005
-289,862	121,349	0,099	-0,091
-288,847	-11,314	0,059	0,028
-287,832	-98,902	-0,104	-0,019
-286,818	222,593	-0,138	0,163
-285,803	12,533	0,080	0,045
-284,789	-89,620	0,057	0,012
-283,774	258,309	-0,083	0,104
-282,759	287,468	0,048	0,064
-281,745	800,000	0,017	-0,047
-280,730	-53,606	-0,096	0,032
-279,716	190,921	0,021	0,023
-278,701	9,918	0,100	-0,055
-277,686	-91,272	0,034	-0,007
-276,672	-200,000	0,005	0,029
-275,657	-54,622	-0,159	0,052
-274,643	-200,000	-0,008	0,080
-273,628	800,000	0,055	0,115
-272,613	-200,000	0,013	0,095
-271,599	290,311	0,109	-0,145
-270,584	65,879	0,056	0,041
-269,570	312,855	-0,034	0,046
-268,555	5,951	0,108	0,058
-267,540	787,728	-0,038	0,077
-266,526	-200,000	0,007	0,031
-265,511	-4,166	0,054	0,027
-264,497	-200,000	0,004	-0,075
-263,482	-200,000	0,002	0,083
-262,467	-94,652	-0,101	0,020
-261,453	19,264	-0,059	-0,035
-260,438	188,991	0,059	0,065
-259,424	84,675	-0,112	-0,089
-258,409	-200,000	-0,009	0,103
-257,395	-42,492	-0,098	0,036
-256,380	800,000	0,086	0,203
-255,365	110,408	-0,030	0,026
-254,351	213,864	0,050	-0,057
-253,336	140,216	-0,042	-0,041
-252,322	189,590	-0,082	-0,090
-251,307	800,000	-0,038	-0,102
-250,292	271,624	0,082	0,106
-249,278	658,536	-0,066	-0,126
-248,263	395,206	0,054	0,082
-247,249	-200,000	-0,006	0,037
-246,234	-46,832	0,081	0,029
-245,219	-149,742	0,041	0,002
-244,205	-122,765	-0,033	-0,004
-243,190	225,480	-0,027	0,032
-242,176	68,141	0,055	-0,041
-241,161	670,574	0,030	-0,057
-240,146	769,368	-0,067	-0,133
-239,132	-61,633	0,077	-0,024
-238,117	800,000	0,016	-0,041
-237,103	626,322	0,041	-0,075
-236,088	-200,000	-0,014	0,057
-235,073	258,044	0,079	0,100
-234,059	800,000	0,039	0,117
-233,044	597,107	0,058	0,106
-232,030	-119,176	0,122	-0,015
-231,015	800,000	0,014	-0,036
-230,000	-53,182	0,171	-0,057
-228,986	-56,859	-0,140	0,045
-227,971	-200,000	-0,014	0,086
-226,957	573,076	0,065	0,117
-225,942	800,000	-0,073	0,170
-224,927	800,000	-0,069	0,159
-223,913	-200,000	-0,016	0,088
-222,898	126,761	-0,092	-0,086
-221,884	-135,355	-0,063	-0,005
-220,869	-16,803	-0,071	0,033
-219,855	800,000	-0,039	0,089
-218,840	-200,000	0,039	0,133
-217,825	119,760	0,142	0,129
-216,811	-64,223	-0,117	-0,035
-215,796	800,000	0,014	0,043
-214,782	800,000	0,028	0,058
-213,767	-17,185	-0,048	-0,022
-212,752	-200,000	0,004	0,138
-211,738	112,235	0,115	-0,102
-210,723	-120,762	0,189	-0,023
-209,709	-189,361	-0,072	0,001
-208,694	334,356	-0,037	-0,053
-207,679	182,403	0,097	-0,105
-206,665	-200,000	-0,000	-0,057
-205,650	76,932	0,085	0,066
-204,636	-55,271	0,031	-0,010
-203,621	-200,000	0,005	0,111
-202,606	128,903	-0,067	-0,062
-201,592	-19,164	-0,036	-0,016
-200,577	675,403	0,032	0,062
-199,563	251,245	-0,064	0,079
-198,548	800,000	0,051	0,133
-197,533	-189,037	0,071	0,001
-196,519	651,042	0,061	0,114
-195,504	3,495	-0,046	-0,024
-194,490	800,000	-0,052	-0,149
-193,475	-162,013	-0,151	0,005
-192,460	-80,882	0,089	0,021
-191,446	-200,000	0,019	-0,062
-190,431	-200,000	-0,004	0,051
-189,417	800,000	-0,020	-0,045
-188,402	800,000	-0,006	0,017
-187,387	800,000	-0,033	0,102
-186,373	684,533	-0,021	-0,040
-185,358	800,000	-0,066	-0,146
-184,344	800,000	0,050	0,110
-183,329	-10,409	-0,066	0,032
-182,315	800,000	-0,037	0,119
-181,300	113,140	0,078	-0,069
-180,285	-200,000	0,015	-0,185
-179,271	800,000	-0,108	-0,220
-178,256	65,987	0,110	0,081
-177,242	46,664	-0,107	-0,072
-176,227	-149,489	-0,050	0,003
-175,212	-200,000	0,011	0,043
-174,198	-105,680	0,070	0,011
-173,183	-200,000	-0,013	-0,051
-172,169	-120,282	-0,125	-0,015
-171,154	-42,945	0,119	-0,044
-170,139	188,704	-0,034	0,037
-169,125	800,000	0,045	0,109
-168,110	-9,340	0,130	0,063
-167,096	-200,000	0,004	0,080
-166,081	-200,000	0,008	0,028
-165,066	204,794	-0,074	0,083
-164,052	-127,974	0,086	-0,009
-163,037	176,081	0,082	-0,087
-162,023	-55,661	-0,037	0,012
-161,008	73,809	0,068	-0,052
-159,993	97,457	-0,036	0,030
-158,979	208,296	-0,114	-0,130
-157,964	-200,000	0,019	-0,192
-156,950	79,304	-0,087	-0,068
-155,935	800,000	0,062	-0,137
-154,920	135,542	0,083	0,079
-153,906	371,242	0,061	0,091
-152,891	123,387	-0,086	0,078
-151,877	-69,605	-0,090	0,025
-150,862	76,123	-0,087	-0,067
-149,847	-200,000	-0,030	-0,111
-148,833	-200,000	0,006	-0,098
-147,818	-200,000	0,045	0,155
-146,804	-147,357	0,104	0,006
-145,789	800,000	0,034	0,082
-144,775	245,411	-0,024	-0,029
-143,760	800,000	0,001	0,002
-142,745	271,027	0,072	-0,093
-141,731	-200,000	0,003	0,012
-140,716	248,627	-0,043	0,053
-139,702	800,000	0,031	-0,075
-138,687	42,542	-0,074	0,049
-137,672	800,000	0,004	-0,012
-136,658	-200,000	0,016	-0,129
-135,643	800,000	0,019	0,042
-134,629	-200,000	-0,006	0,091
-133,614	-93,525	-0,100	0,020
-132,599	229,661	0,083	0,099
-131,585	81,860	0,146	0,115
-130,570	800,000	-0,050	-0,128
-129,556	222,479	0,078	-0,092
-128,541	184,312	-0,045	0,049
-127,526	-200,000	0,006	0,034
-126,512	-130,031	0,071	0,007
-125,497	-200,000	0,003	0,023
-124,483	121,360	-0,021	-0,019
-123,468	-200,000	-0,019	-0,087
-122,453	-119,378	-0,098	0,012
-121,439	557,664	0,106	-0,187
-120,424	-200,000	-0,013	-0,105
