DTS Sentinel unit serial number:	SN410029Multiplexer serial number:	ORYXHardware model number:	OX2-SRSoftware version number:	ORYX F/W v4,00 Oryx Data Collector v3.7.2.0data status	okinstallation	B6 Nyhavnadifferential loss correction	single-endedforward channel	channel 2reverse channel	N/Adate	2023/12/09time	18:20:08forward acquisition time	300,00reverse acquisition time	0,00gamma	499,1914k internal	0,3130k external	0,3130temperature offset calibration	1,0000default loss term (dB/km)	0,3820temperature slope calibration	1,0000multiplexer offset coefficient	1,0000multiplexer slope coefficient	1,0000fibre end	0,00T internal ref (°C)	21,05T ext. ref 1 (°C)	4,71T ext. ref 2 (°C)	4,72length (m)	temperature (°C)	Stokes	anti-Stokes-744,400	800,000	0,032	-0,083
-743,385	-93,800	-0,213	-0,043
-742,371	43,264	0,215	-0,146
-741,356	-48,685	-0,168	0,060
-740,342	-61,099	0,011	0,004
-739,327	-135,323	-0,302	0,026
-738,312	256,878	-0,113	-0,144
-737,298	142,204	-0,177	0,174
-736,283	-61,907	-0,107	0,033
-735,269	7,500	-0,277	0,154
-734,254	9,043	0,038	0,021
-733,239	-64,982	-0,453	-0,135
-732,225	55,062	0,119	0,086
-731,210	-85,343	0,100	-0,023
-730,196	60,817	-0,023	0,017
-729,181	18,285	-0,080	0,047
-728,167	267,453	-0,057	-0,075
-727,152	-84,052	-0,227	-0,053
-726,137	360,179	0,034	-0,051
-725,123	-14,433	-0,088	-0,042
-724,108	-200,000	-0,009	-0,105
-723,094	160,909	0,097	-0,101
-722,079	-89,394	-0,152	0,033
-721,064	800,000	-0,020	-0,045
-720,050	44,737	0,096	0,066
-719,035	-194,202	0,141	-0,001
-718,021	-51,896	-0,052	0,018
-717,006	-200,000	-0,038	-0,157
-715,991	73,845	-0,052	-0,041
-714,977	-200,000	0,002	-0,110
-713,962	800,000	0,050	0,143
-712,948	800,000	0,045	0,143
-711,933	65,528	-0,093	0,069
-710,918	9,453	-0,109	0,061
-709,904	-200,000	0,005	0,066
-708,889	800,000	-0,050	-0,136
-707,875	152,169	-0,067	-0,068
-706,860	800,000	-0,032	-0,096
-705,845	-150,977	0,105	0,006
-704,831	-200,000	-0,005	-0,045
-703,816	188,416	0,082	-0,091
-702,802	685,844	-0,053	-0,102
-701,787	-121,531	-0,066	0,008
-700,772	428,477	-0,027	0,044
-699,758	-200,000	-0,008	0,034
-698,743	90,044	-0,018	-0,015
-697,729	-200,000	0,042	-0,140
-696,714	-200,000	0,044	0,149
-695,699	-101,161	0,070	-0,013
-694,685	-100,324	-0,015	-0,003
-693,670	-200,000	0,006	-0,184
-692,656	-52,942	0,059	0,020
-691,641	-55,522	-0,044	-0,015
-690,627	196,470	-0,049	-0,056
-689,612	710,069	-0,062	-0,123
-688,597	-38,318	-0,050	0,019
-687,583	-149,479	0,022	0,001
-686,568	-31,583	0,044	0,018
-685,554	-24,203	-0,094	0,042
-684,539	800,000	0,039	-0,098
-683,524	26,748	0,057	0,035
-682,510	-200,000	0,004	-0,047
-681,495	-183,241	-0,029	-0,000
-680,481	-200,000	-0,019	-0,105
-679,466	-200,000	-0,021	-0,110
-678,451	-200,000	-0,020	-0,101
-677,437	236,281	0,034	0,041
-676,422	556,558	-0,074	0,134
-675,408	-200,000	0,001	-0,040
-674,393	-12,573	0,073	-0,035
-673,378	179,256	-0,080	-0,087
-672,364	-45,273	-0,111	-0,041
-671,349	-54,986	-0,142	-0,047
-670,335	-200,000	0,027	-0,124
-669,320	-48,975	-0,018	-0,006
-668,305	-174,028	-0,123	0,003
-667,291	800,000	0,032	-0,070
-666,276	800,000	-0,018	-0,047
-665,262	450,640	-0,008	-0,012
-664,247	478,604	0,037	-0,063
-663,232	-200,000	-0,002	-0,054
-662,218	265,944	0,114	-0,147
-661,203	99,356	0,042	0,036
-660,189	-200,000	0,007	-0,035
-659,174	-200,000	0,002	0,062
-658,159	-103,135	-0,134	0,023
-657,145	-140,593	0,045	-0,003
-656,130	426,972	0,076	-0,122
-655,116	800,000	-0,035	-0,072
-654,101	93,687	0,038	-0,032
-653,086	-110,537	0,129	-0,020
-652,072	-87,540	0,107	-0,024
-651,057	-200,000	-0,016	-0,123
-650,043	-200,000	-0,008	-0,239
-649,028	-200,000	0,011	-0,045
-648,014	591,648	0,089	-0,164
-646,999	-95,433	-0,131	0,026
-645,984	-200,000	-0,016	-0,070
-644,970	-135,421	-0,120	0,010
-643,955	-129,373	-0,098	0,010
-642,941	84,025	0,056	0,046
-641,926	-200,000	0,008	-0,084
-640,911	-64,030	-0,122	-0,037
-639,897	100,595	-0,073	0,063
-638,882	64,830	-0,066	0,049
-637,868	259,524	-0,030	0,039
-636,853	-200,000	-0,006	-0,073
-635,838	-138,858	-0,177	0,014
-634,824	75,698	0,059	-0,046
-633,809	111,261	0,087	-0,078
-632,795	451,248	-0,048	0,080
-631,780	-76,706	0,047	-0,012
-630,765	26,097	-0,163	0,101
-629,751	223,153	-0,144	-0,172
-628,736	-200,000	-0,032	-0,154
-627,722	-200,000	0,001	-0,094
-626,707	800,000	0,051	-0,137
-625,692	-9,548	0,081	0,040
-624,678	47,763	-0,068	-0,047
-623,663	800,000	-0,027	-0,087
-622,649	72,977	-0,070	-0,054
-621,634	63,371	-0,064	0,047
-620,619	-200,000	0,025	-0,135
-619,605	-200,000	0,002	-0,017
-618,590	-200,000	-0,015	0,076
-617,576	-56,788	-0,055	-0,018
-616,561	-200,000	0,005	-0,022
-615,546	-46,815	0,040	-0,014
-614,532	-10,954	-0,085	-0,041
-613,517	-52,012	-0,109	-0,037
-612,503	338,067	-0,046	-0,067
-611,488	800,000	0,031	-0,087
-610,474	311,305	0,077	0,108
-609,459	651,941	0,020	-0,038
-608,444	126,745	-0,047	-0,044
-607,430	-64,879	-0,212	0,063
-606,415	-139,682	-0,016	0,001
-605,401	-200,000	0,020	0,086
-604,386	800,000	0,040	0,090
-603,371	800,000	0,022	0,056
-602,357	91,696	-0,080	-0,066
-601,342	-200,000	-0,006	-0,023
-600,328	800,000	-0,037	0,088
-599,313	-200,000	0,011	-0,152
-598,298	-200,000	-0,029	-0,102
-597,284	800,000	-0,028	0,074
-596,269	456,996	0,018	-0,029
-595,255	582,630	0,012	0,022
-594,240	-120,950	-0,218	0,027
-593,225	-200,000	0,002	-0,065
-592,211	-128,185	0,063	0,007
-591,196	207,132	-0,026	0,030
-590,182	-12,050	0,125	-0,060
-589,167	-34,251	0,073	0,030
-588,152	-200,000	0,008	-0,026
-587,138	36,594	0,155	-0,101
-586,123	270,423	-0,063	-0,082
-585,109	800,000	-0,004	0,011
-584,094	800,000	-0,030	0,067
-583,079	-200,000	0,002	-0,008
-582,065	-200,000	-0,009	0,054
-581,050	172,382	0,084	0,089
-580,036	25,111	0,073	0,045
-579,021	37,461	-0,065	-0,043
-578,006	800,000	-0,054	-0,132
-576,992	-45,044	-0,077	0,028
-575,977	800,000	-0,004	-0,010
-574,963	-106,790	0,126	-0,020
-573,948	-100,620	0,075	-0,014
-572,934	496,679	0,048	-0,082
-571,919	734,531	-0,043	-0,086
-570,904	-200,000	-0,007	-0,089
-569,890	-130,277	0,071	0,007
-568,875	9,164	-0,017	0,010
-567,861	-199,299	0,127	-0,000
-566,846	710,322	0,052	0,103
-565,831	-91,397	-0,060	-0,013
-564,817	-48,076	-0,078	-0,028
-563,802	800,000	0,006	-0,013
-562,788	2,156	-0,130	0,069
-561,773	-43,129	0,104	-0,039
-560,758	-4,888	0,067	-0,034
-559,744	-40,999	0,136	0,052
-558,729	-200,000	0,006	0,042
-557,715	-123,912	0,177	-0,020
-556,700	199,305	-0,101	-0,115
-555,685	-200,000	-0,002	-0,092
-554,671	202,519	0,037	0,042
-553,656	694,588	-0,054	0,105
-552,642	-200,000	0,013	0,047
-551,627	-101,110	0,176	-0,032
-550,612	-200,000	0,023	0,077
-549,598	321,934	0,081	0,114
-548,583	-200,000	0,004	-0,068
-547,569	32,577	-0,054	0,034
-546,554	126,555	0,061	-0,057
-545,539	-200,000	0,013	-0,072
-544,525	192,844	0,043	-0,048
-543,510	776,321	-0,018	-0,036
-542,496	103,415	-0,058	0,050
-541,481	413,779	-0,074	-0,116
-540,466	800,000	-0,019	0,039
-539,452	800,000	0,037	0,093
-538,437	800,000	0,060	0,141
-537,423	-200,000	0,009	0,079
-536,408	-200,000	-0,015	-0,092
-535,393	800,000	-0,036	-0,100
-534,379	800,000	-0,033	0,077
-533,364	22,037	0,145	-0,087
-532,350	-200,000	-0,012	0,071
-531,335	-22,362	0,100	0,045
-530,321	126,602	-0,052	-0,049
-529,306	-20,156	-0,176	-0,080
-528,291	-200,000	0,017	-0,073
-527,277	274,133	-0,064	0,084
-526,262	85,389	0,156	-0,126
-525,248	-102,567	0,096	0,017
-524,233	-200,000	0,021	0,171
-523,218	-41,473	0,053	-0,020
-522,204	-200,000	-0,044	0,197
-521,189	-200,000	0,003	0,100
-520,175	-84,272	-0,081	0,019
-519,160	429,902	0,090	-0,144
-518,145	702,286	-0,023	-0,044
-517,131	217,049	-0,066	-0,077
-516,116	78,554	-0,109	-0,086
-515,102	800,000	-0,040	0,110
-514,087	-200,000	0,006	-0,023
-513,072	-42,944	-0,126	-0,047
-512,058	311,988	-0,020	0,028
-511,043	318,580	-0,016	0,022
-510,029	-55,764	-0,065	0,021
-509,014	800,000	-0,071	0,199
-507,999	-200,000	-0,004	0,072
-506,985	-200,000	-0,014	-0,198
-505,970	-200,000	-0,002	-0,097
-504,956	149,869	-0,074	-0,073
-503,941	-133,501	0,225	-0,020
-502,926	30,491	-0,034	0,021
-501,912	699,701	0,034	-0,066
-500,897	-105,545	0,085	-0,014
-499,883	16,528	0,143	0,083
-498,868	-8,620	-0,074	-0,036
-497,853	-61,031	0,059	0,018
-496,839	546,187	-0,072	0,127
-495,824	800,000	0,014	-0,038
-494,810	232,568	0,050	0,061
-493,795	190,026	0,148	0,164
-492,781	13,629	-0,052	-0,030
-491,766	-200,000	-0,008	0,108
-490,751	231,286	-0,121	-0,147
-489,737	560,907	-0,033	-0,058
-488,722	-133,883	0,080	0,007
-487,708	271,793	0,068	0,089
-486,693	85,526	0,039	-0,031
-485,678	-69,532	-0,011	0,003
-484,664	-71,596	0,051	-0,014
-483,649	800,000	-0,047	0,112
-482,635	-74,302	0,020	-0,005
-481,620	451,372	0,009	0,015
-480,605	800,000	0,034	0,075
-479,591	129,408	0,062	-0,058
-478,576	-200,000	0,040	0,147
-477,562	-31,402	0,103	-0,043
-476,547	326,656	-0,014	0,019
-475,532	-200,000	-0,001	0,031
-474,518	-99,670	0,049	0,009
-473,503	28,616	-0,083	0,051
-472,489	-123,190	0,083	-0,010
-471,474	119,669	-0,102	0,093
-470,459	175,673	0,111	-0,118
-469,445	-200,000	-0,001	0,056
-468,430	-200,000	0,003	0,036
-467,416	-94,255	-0,075	-0,015
-466,401	361,473	-0,102	0,151
-465,386	-7,496	-0,070	-0,035
-464,372	-200,000	0,024	-0,078
-463,357	44,112	0,148	-0,100
-462,343	192,679	-0,004	-0,004
-461,328	-27,855	-0,154	-0,065
-460,313	-92,575	-0,172	0,035
-459,299	7,864	0,041	0,023
-458,284	-57,232	0,053	-0,017
-457,270	-200,000	-0,002	0,103
-456,255	-53,959	-0,032	-0,011
-455,241	103,281	-0,035	-0,030
-454,226	30,632	-0,044	-0,028
-453,211	68,413	0,068	0,051
-452,197	-200,000	-0,014	-0,091
-451,182	-175,869	0,064	0,001
-450,168	800,000	-0,026	0,069
-449,153	-200,000	-0,007	-0,057
-448,138	-154,577	0,035	0,002
-447,124	683,615	-0,037	-0,071
-446,109	785,400	0,021	0,042
-445,095	233,922	0,078	-0,094
-444,080	-139,680	0,085	-0,007
-443,065	373,994	-0,096	0,144
-442,051	-81,007	-0,089	-0,021
-441,036	-200,000	0,004	-0,018
-440,022	-99,286	-0,068	-0,013
-439,007	-38,505	0,067	-0,026
-437,992	-62,627	0,041	0,012
-436,978	-60,483	0,065	0,020
-435,963	800,000	0,009	0,026
-434,949	36,905	-0,119	0,077
-433,934	800,000	-0,017	-0,046
-432,919	-200,000	0,022	0,106
-431,905	135,726	-0,051	-0,049
-430,890	278,242	0,055	0,072
-429,876	800,000	-0,028	0,087
-428,861	-200,000	0,011	0,077
-427,846	-68,944	-0,116	-0,033
-426,832	-200,000	-0,024	0,098
-425,817	-104,586	-0,178	0,030
-424,803	41,941	0,099	-0,066
-423,788	-200,000	-0,005	0,015
-422,773	209,471	0,022	0,026
-421,759	-3,668	0,085	-0,043
-420,744	-80,864	-0,005	-0,001
-419,730	447,012	-0,032	0,051
-418,715	3,923	-0,208	-0,111
-417,701	-200,000	0,018	-0,067
-416,686	-200,000	0,015	0,106
-415,671	800,000	-0,093	0,192
-414,657	-200,000	-0,019	-0,113
-413,642	-48,894	0,130	-0,045
-412,628	68,337	0,038	-0,029
-411,613	337,380	-0,030	0,043
-410,598	-58,762	-0,058	-0,018
-409,584	-200,000	-0,001	-0,054
-408,569	20,507	0,023	0,014
-407,555	800,000	-0,048	0,113
-406,540	125,858	-0,066	0,061
-405,525	339,757	0,028	-0,040
-404,511	-14,416	-0,029	0,014
-403,496	24,396	0,090	-0,054
-402,482	800,000	-0,008	0,023
-401,467	766,461	-0,070	-0,141
-400,452	-200,000	0,010	-0,054
-399,438	-142,738	-0,051	0,004
-398,423	800,000	-0,049	-0,101
-397,409	-51,827	0,018	-0,006
-396,394	-200,000	-0,001	-0,051
-395,379	-200,000	-0,003	0,073
-394,365	12,823	0,093	0,053
-393,350	-200,000	-0,029	0,110
-392,336	-62,419	0,155	0,047
-391,321	-14,911	-0,131	-0,061
-390,306	800,000	0,039	-0,091
-389,292	-200,000	0,033	0,132
-388,277	-200,000	0,027	-0,170
-387,263	34,861	0,124	-0,079
-386,248	218,513	-0,031	-0,036
-385,233	800,000	0,002	-0,005
-384,219	783,854	0,057	0,115
-383,204	-200,000	0,040	-0,142
-382,190	-200,000	0,008	0,065
-381,175	-200,000	-0,045	-0,156
-380,160	591,732	-0,027	-0,050
-379,146	-200,000	0,021	0,076
-378,131	-119,209	0,095	-0,012
-377,117	800,000	-0,024	0,054
-376,102	-200,000	-0,092	0,000
-375,088	-45,776	-0,161	-0,058
-374,073	-51,772	-0,080	-0,027
-373,058	800,000	0,016	-0,039
-372,044	-31,918	-0,089	-0,036
-371,029	23,742	0,076	-0,046
-370,015	-200,000	-0,012	-0,051
-369,000	800,000	0,022	0,062
-367,985	-98,977	-0,063	0,012
-366,971	729,509	-0,023	-0,044
-365,956	-64,936	0,183	0,054
-364,942	20,820	0,054	0,032
-363,927	-160,984	0,072	0,003
-362,912	48,972	0,110	-0,075
-361,898	418,142	-0,060	0,094
-360,883	800,000	-0,027	0,061
-359,869	118,254	0,083	-0,075
-358,854	-100,000	0,074	0,013
-357,839	-200,000	-0,003	-0,010
-356,825	800,000	0,039	0,095
-355,810	800,000	0,038	0,090
-354,796	584,364	0,050	-0,090
-353,781	86,998	-0,098	-0,079
-352,766	317,896	-0,041	0,057
-351,752	491,791	0,046	0,077
-350,737	-192,806	0,042	0,000
-349,723	-112,577	0,044	-0,006
-348,708	-200,000	0,011	0,100
-347,693	76,177	-0,032	-0,025
-346,679	-87,571	-0,170	0,037
-345,664	-200,000	-0,042	-0,188
-344,650	-200,000	-0,024	-0,094
-343,635	800,000	0,024	0,053
-342,620	-200,000	0,004	0,080
-341,606	800,000	-0,022	-0,058
-340,591	-142,619	-0,102	-0,007
-339,577	480,422	0,015	0,025
-338,562	50,838	0,068	0,047
-337,548	-200,000	-0,003	-0,122
-336,533	-200,000	0,011	-0,101
-335,518	266,017	-0,038	0,049
-334,504	-200,000	0,041	0,219
-333,489	232,789	0,067	-0,081
-332,475	800,000	0,055	0,119
-331,460	-200,000	0,007	-0,125
-330,445	-200,000	-0,014	-0,236
-329,431	495,455	-0,020	-0,035
-328,416	-33,721	0,060	-0,024
-327,402	-113,568	-0,086	-0,012
-326,387	-200,000	0,021	-0,102
-325,372	-143,814	0,092	-0,006
-324,358	-83,329	0,078	0,018
-323,343	53,449	-0,034	0,024
-322,329	-17,216	0,084	-0,039
-321,314	800,000	0,006	-0,015
-320,299	436,795	-0,017	0,027
-319,285	-200,000	-0,015	0,065
-318,270	35,416	-0,074	0,048
-317,256	-35,626	-0,014	0,006
-316,241	800,000	-0,028	0,089
-315,226	-116,045	-0,065	-0,009
-314,212	-200,000	0,009	0,103
-313,197	-200,000	0,001	0,072
-312,183	174,366	-0,059	0,062
-311,168	-90,973	0,041	-0,009
-310,153	800,000	0,004	-0,010
-309,139	-200,000	-0,008	0,107
-308,124	229,479	-0,133	0,159
-307,110	58,548	-0,054	-0,039
-306,095	397,748	0,110	0,168
-305,080	-200,000	-0,002	-0,034
-304,066	800,000	-0,015	-0,032
-303,051	117,143	-0,058	-0,052
-302,037	-72,836	-0,094	0,025
-301,022	-131,124	-0,039	-0,004
-300,008	-2,008	0,156	0,080
-298,993	-74,831	0,051	0,013
-297,978	446,818	0,063	0,102
-296,964	-100,227	-0,108	0,019
-295,949	-200,000	-0,008	-0,033
-294,935	-200,000	0,015	0,101
-293,920	-200,000	0,001	-0,057
-292,905	-11,679	-0,032	-0,015
-291,891	11,210	0,094	0,053
-290,876	-200,000	0,005	-0,148
-289,862	-200,000	0,036	-0,136
-288,847	-200,000	0,035	-0,147
-287,832	-184,808	-0,243	0,003
-286,818	76,217	-0,043	-0,033
-285,803	4,754	0,036	-0,019
-284,789	800,000	-0,046	0,121
-283,774	-123,193	0,088	-0,010
-282,759	800,000	-0,024	0,072
-281,745	481,860	-0,022	-0,037
-280,730	-94,696	-0,084	0,016
-279,716	800,000	0,053	0,115
-278,701	19,562	-0,087	0,051
-277,686	800,000	-0,014	0,033
-276,672	0,201	0,087	0,045
-275,657	677,692	-0,031	-0,060
-274,643	392,047	0,023	-0,036
-273,628	-55,346	-0,132	-0,043
-272,613	133,184	0,031	0,030
-271,599	800,000	-0,014	-0,033
-270,584	47,162	0,049	-0,033
-269,570	299,071	-0,061	0,082
-268,555	-200,000	0,003	-0,016
-267,540	-200,000	0,004	-0,066
-266,526	221,913	-0,032	0,038
-265,511	204,022	-0,018	-0,020
-264,497	-99,652	0,034	-0,006
-263,482	370,952	0,082	-0,121
-262,467	-200,000	0,008	-0,060
-261,453	-200,000	-0,020	-0,088
-260,438	-114,138	-0,059	-0,008
-259,424	-200,000	-0,010	0,088
-258,409	-200,000	0,003	0,052
-257,395	-200,000	-0,027	0,182
-256,380	7,694	0,086	0,047
-255,365	85,649	0,006	0,005
-254,351	339,389	0,088	-0,125
-253,336	396,917	0,086	-0,132
-252,322	-200,000	-0,005	-0,090
-251,307	-88,739	-0,048	-0,010
-250,292	-9,623	0,126	0,061
-249,278	-83,439	0,023	0,005
-248,263	598,700	-0,057	0,103
-247,249	85,769	0,060	0,048
-246,234	-200,000	0,010	-0,082
-245,219	800,000	0,026	-0,080
-244,205	-13,914	-0,102	0,048
-243,190	18,040	0,066	0,038
-242,176	-17,878	0,102	0,047
-241,161	287,108	-0,042	-0,055
-240,146	-10,521	0,063	0,030
-239,132	-33,898	-0,045	0,018
-238,117	-200,000	-0,007	0,048
-237,103	-20,569	-0,043	0,019
-236,088	-81,209	0,182	-0,044
-235,073	-200,000	-0,010	-0,049
-234,059	-54,810	-0,086	0,028
-233,044	5,805	-0,032	0,017
-232,030	-44,418	-0,121	-0,044
-231,015	-76,029	0,063	-0,016
-230,000	355,524	0,080	0,117
-228,986	-200,000	0,004	0,043
-227,971	-176,500	0,060	0,001
-226,957	-200,000	-0,005	-0,035
-225,942	-25,639	-0,016	-0,007
-224,927	207,698	0,041	0,047
-223,913	-125,802	-0,105	-0,011
-222,898	-200,000	-0,009	0,075
-221,884	396,017	0,023	0,034
-220,869	115,052	-0,116	0,103
-219,855	-200,000	0,001	-0,064
-218,840	124,345	0,032	-0,029
-217,825	-105,566	-0,072	-0,012
-216,811	-200,000	-0,004	-0,061
-215,796	800,000	-0,055	-0,148
-214,782	-9,123	0,047	-0,023
-213,767	228,832	-0,065	0,077
-212,752	-85,939	0,120	0,027
-211,738	-184,800	0,121	-0,001
-210,723	-53,099	-0,018	-0,006
-209,709	304,221	0,031	0,042
-208,694	-1,317	0,033	0,017
-207,679	44,227	-0,153	0,102
-206,665	-9,447	0,105	-0,051
-205,650	800,000	0,021	0,059
-204,636	-93,575	0,118	0,024
-203,621	137,611	0,036	0,034
-202,606	-152,643	-0,126	0,006
-201,592	-200,000	0,004	0,016
-200,577	25,474	-0,070	0,042
-199,563	77,677	-0,064	-0,049
-198,548	54,118	-0,024	0,017
-197,533	138,597	0,029	-0,028
-196,519	-200,000	0,003	0,106
-195,504	800,000	0,020	0,058
-194,490	-200,000	0,015	-0,074
-193,475	-200,000	0,006	0,071
-192,460	133,206	0,022	0,020
-191,446	107,671	-0,041	0,035
-190,431	118,499	0,077	0,069
-189,417	800,000	-0,017	0,043
-188,402	-10,748	0,069	-0,033
-187,387	268,925	-0,059	0,075
-186,373	-200,000	0,012	-0,054
-185,358	332,061	-0,019	0,027
-184,344	11,160	0,127	0,071
-183,329	-200,000	0,032	0,181
-182,315	-200,000	-0,009	-0,041
-181,300	800,000	-0,041	-0,091
-180,285	-128,302	0,046	0,005
-179,271	-200,000	0,008	-0,120
-178,256	229,777	0,032	0,039
-177,242	-138,468	0,049	-0,004
-176,227	405,476	-0,056	0,087
-175,212	100,321	0,079	-0,067
-174,198	520,432	0,048	-0,082
-173,183	800,000	0,083	-0,207
-172,169	50,161	0,015	0,010
-171,154	800,000	0,090	-0,220
-170,139	-200,000	0,032	-0,157
-169,125	-200,000	-0,008	0,039
-168,110	-200,000	0,019	0,142
-167,096	800,000	-0,041	0,094
-166,081	33,778	0,113	-0,072
-165,066	433,585	-0,101	0,161
-164,052	-30,598	0,019	-0,008
-163,037	-37,238	0,143	0,055
-162,023	-1,590	0,079	-0,040
-161,008	5,520	-0,019	0,010
-159,993	-183,789	-0,103	-0,001
-158,979	-87,121	0,060	0,013
-157,964	545,457	-0,076	-0,132
-156,950	-81,612	0,039	-0,009
-155,935	-200,000	0,028	0,155
-154,920	257,603	0,039	0,049
-153,906	-200,000	-0,013	0,053
-152,891	-120,327	-0,182	0,022
-151,877	-200,000	-0,001	0,058
-150,862	-178,543	-0,088	0,001
-149,847	144,521	-0,027	-0,026
-148,833	-200,000	-0,006	0,098
-147,818	-200,000	-0,007	0,100
-146,804	154,511	0,061	-0,061
-145,789	-136,114	0,070	0,006
-144,775	192,342	-0,023	0,025
-143,760	121,123	0,073	-0,066
-142,745	-200,000	0,024	-0,079
-141,731	-200,000	-0,022	0,075
-140,716	-132,324	0,055	0,005
-139,702	42,382	-0,023	0,015
-138,687	219,441	0,125	0,145
-137,672	-0,371	0,028	-0,015
-136,658	-200,000	-0,014	-0,093
-135,643	800,000	0,035	-0,074
-134,629	-7,824	0,076	0,037
-133,614	-61,503	0,104	-0,031
-132,599	81,325	0,032	-0,025
-131,585	214,676	-0,047	-0,054
-130,570	-38,665	-0,078	-0,030
-129,556	-200,000	-0,005	-0,040
-128,541	173,225	-0,047	0,049
-127,526	-200,000	-0,009	-0,045
-126,512	-144,241	0,016	-0,001
-125,497	255,359	0,076	-0,095
-124,483	441,935	-0,042	0,067
-123,468	59,861	0,044	-0,032
-122,453	-132,041	-0,076	0,007
-121,439	79,480	0,057	0,044
-120,424	-200,000	-0,020	-0,097
