DTS Sentinel unit serial number:	SN410029Multiplexer serial number:	ORYXHardware model number:	OX2-SRSoftware version number:	ORYX F/W v4,00 Oryx Data Collector v3.7.2.0data status	okinstallation	B6 Nyhavnadifferential loss correction	single-endedforward channel	channel 2reverse channel	N/Adate	2023/12/09time	21:50:08forward acquisition time	300,00reverse acquisition time	0,00gamma	499,1914k internal	0,3127k external	0,3127temperature offset calibration	1,0000default loss term (dB/km)	0,3820temperature slope calibration	1,0000multiplexer offset coefficient	1,0000multiplexer slope coefficient	1,0000fibre end	0,00T internal ref (°C)	21,62T ext. ref 1 (°C)	5,42T ext. ref 2 (°C)	5,43length (m)	temperature (°C)	Stokes	anti-Stokes-744,400	-98,602	0,088	-0,017
-743,385	589,447	-0,059	0,109
-742,371	74,036	0,055	-0,043
-741,356	20,496	-0,243	0,146
-740,342	-200,000	-0,028	0,101
-739,327	-113,555	-0,221	-0,032
-738,312	268,566	0,053	-0,069
-737,298	-54,432	-0,233	0,078
-736,283	-200,000	-0,010	-0,121
-735,269	-98,967	-0,137	-0,026
-734,254	640,624	0,084	0,161
-733,239	-132,934	-0,543	-0,051
-732,225	-120,053	0,129	0,016
-731,210	301,896	-0,079	0,110
-730,196	330,152	-0,019	-0,027
-729,181	540,949	0,039	0,069
-728,167	-200,000	0,020	-0,163
-727,152	-200,000	-0,000	-0,101
-726,137	284,762	-0,081	0,109
-725,123	-200,000	0,001	0,029
-724,108	-63,192	0,060	0,018
-723,094	146,139	-0,076	-0,075
-722,079	-41,502	0,038	0,014
-721,064	157,795	0,073	-0,075
-720,050	409,291	0,021	0,033
-719,035	144,855	0,124	-0,123
-718,021	-200,000	-0,005	-0,038
-717,006	-119,603	0,024	0,003
-715,991	677,958	0,036	-0,070
-714,977	-169,410	-0,154	-0,004
-713,962	-121,269	0,031	-0,004
-712,948	774,421	0,034	-0,069
-711,933	149,121	0,024	0,025
-710,918	317,476	-0,116	-0,164
-709,904	-71,242	-0,036	0,010
-708,889	-200,000	0,009	-0,080
-707,875	-127,139	-0,126	-0,014
-706,860	139,564	-0,042	0,041
-705,845	386,854	0,048	0,075
-704,831	-51,838	-0,047	0,016
-703,816	-200,000	-0,020	-0,091
-702,802	-114,850	-0,149	0,021
-701,787	-50,936	-0,128	0,044
-700,772	800,000	-0,011	-0,030
-699,758	800,000	-0,017	-0,051
-698,743	318,879	0,036	-0,051
-697,729	20,004	0,135	0,081
-696,714	158,743	-0,135	0,139
-695,699	-200,000	0,004	-0,081
-694,685	339,224	0,058	-0,085
-693,670	-25,281	-0,140	-0,061
-692,656	-20,518	-0,010	-0,004
-691,641	287,778	-0,061	0,083
-690,627	22,041	-0,187	0,113
-689,612	-200,000	-0,186	0,001
-688,597	-150,166	-0,080	-0,005
-687,583	101,720	-0,066	0,057
-686,568	-200,000	0,007	-0,065
-685,554	727,269	-0,009	0,018
-684,539	100,259	-0,054	0,046
-683,524	635,648	-0,108	0,205
-682,510	-200,000	0,017	0,139
-681,495	-200,000	-0,029	-0,137
-680,481	-200,000	0,034	-0,154
-679,466	148,540	-0,045	-0,045
-678,451	-9,327	0,103	-0,051
-677,437	800,000	-0,010	0,033
-676,422	63,636	-0,075	-0,056
-675,408	129,622	0,069	-0,066
-674,393	104,972	-0,021	0,018
-673,378	134,896	0,054	-0,052
-672,364	-200,000	0,018	-0,126
-671,349	800,000	0,006	-0,017
-670,335	-200,000	-0,016	-0,112
-669,320	-145,177	0,085	0,006
-668,305	131,158	-0,021	-0,020
-667,291	555,450	-0,074	-0,133
-666,276	800,000	0,040	0,102
-665,262	800,000	-0,056	-0,158
-664,247	21,727	-0,053	-0,032
-663,232	-35,924	-0,111	0,044
-662,218	80,588	0,087	0,070
-661,203	324,678	-0,030	0,042
-660,189	21,667	-0,159	-0,096
-659,174	62,746	0,020	0,015
-658,159	31,193	-0,017	-0,011
-657,145	-123,345	-0,072	0,008
-656,130	272,880	-0,057	-0,074
-655,116	202,183	-0,054	-0,062
-654,101	267,229	-0,046	0,060
-653,086	-200,000	-0,013	0,098
-652,072	45,423	-0,028	-0,019
-651,057	66,728	-0,051	-0,038
-650,043	-200,000	-0,011	0,080
-649,028	-89,365	0,038	-0,008
-648,014	71,853	0,076	0,059
-646,999	-90,800	-0,067	0,014
-645,984	800,000	0,022	0,071
-644,970	-157,745	0,065	-0,003
-643,955	533,467	0,028	0,050
-642,941	-200,000	0,011	0,048
-641,926	-150,193	-0,082	0,005
-640,911	-69,763	0,041	-0,011
-639,897	41,563	-0,063	-0,042
-638,882	-82,799	-0,090	0,021
-637,868	-200,000	0,005	0,041
-636,853	-200,000	-0,026	-0,101
-635,838	51,047	-0,159	-0,111
-634,824	800,000	0,043	-0,116
-633,809	151,549	-0,073	0,074
-632,795	800,000	-0,077	0,192
-631,780	238,546	-0,070	0,086
-630,765	45,990	-0,031	0,021
-629,751	325,182	0,026	0,037
-628,736	64,936	0,080	0,060
-627,722	18,992	-0,079	0,047
-626,707	-46,527	-0,129	-0,047
-625,692	538,766	0,028	0,050
-624,678	-7,209	-0,137	0,068
-623,663	7,765	-0,138	0,076
-622,649	35,140	-0,043	0,028
-621,634	-200,000	-0,004	-0,043
-620,619	-184,438	-0,184	0,002
-619,605	265,613	-0,051	0,066
-618,590	-200,000	0,001	0,027
-617,576	-3,817	-0,064	0,033
-616,561	-189,043	-0,051	0,000
-615,546	621,909	0,009	-0,017
-614,532	270,596	-0,031	-0,041
-613,517	-24,525	-0,138	0,061
-612,503	326,700	-0,018	-0,025
-611,488	-200,000	-0,017	-0,226
-610,474	-24,660	0,098	0,043
-609,459	800,000	0,025	0,064
-608,444	-7,356	-0,093	0,047
-607,430	86,754	-0,062	-0,051
-606,415	800,000	0,027	-0,080
-605,401	-46,574	-0,034	-0,012
-604,386	800,000	-0,013	-0,037
-603,371	-200,000	0,004	-0,138
-602,357	-62,321	0,037	-0,011
-601,342	-158,168	-0,028	-0,001
-600,328	-200,000	-0,007	-0,084
-599,313	10,389	-0,018	0,010
-598,298	-93,569	-0,115	0,023
-597,284	791,588	0,036	-0,074
-596,269	234,791	-0,055	0,067
-595,255	-200,000	0,001	0,087
-594,240	-200,000	0,006	0,067
-593,225	481,103	0,034	-0,057
-592,211	800,000	0,015	0,043
-591,196	680,699	0,054	-0,105
-590,182	-107,014	-0,037	-0,006
-589,167	-200,000	0,018	-0,104
-588,152	372,872	-0,063	0,094
-587,138	800,000	0,039	-0,122
-586,123	-3,904	0,045	0,023
-585,109	-200,000	-0,001	0,088
-584,094	-200,000	-0,016	-0,062
-583,079	595,697	0,016	0,030
-582,065	5,492	0,059	0,032
-581,050	37,633	-0,086	0,056
-580,036	-113,627	-0,075	0,011
-579,021	-200,000	0,000	-0,077
-578,006	-200,000	0,023	0,134
-576,992	208,746	-0,033	-0,038
-575,977	174,823	0,004	-0,004
-574,963	-97,420	0,159	-0,030
-573,948	299,245	0,041	0,056
-572,934	67,859	0,101	-0,077
-571,919	505,796	-0,060	-0,103
-570,904	273,682	-0,038	-0,049
-569,890	-72,059	0,107	0,029
-568,875	0,960	0,103	0,054
-567,861	129,003	0,058	0,055
-566,846	-185,030	0,067	0,001
-565,831	-21,039	0,116	-0,052
-564,817	279,693	-0,057	0,075
-563,802	21,279	-0,119	-0,071
-562,788	-200,000	-0,004	-0,032
-561,773	-140,923	0,078	0,006
-560,758	-4,725	-0,079	0,040
-559,744	-200,000	0,012	-0,096
-558,729	175,264	0,020	-0,021
-557,715	-179,065	-0,153	-0,002
-556,700	-104,725	-0,103	-0,017
-555,685	725,134	-0,029	0,058
-554,671	137,330	-0,056	0,054
-553,656	436,041	0,024	0,039
-552,642	-37,085	0,093	0,037
-551,627	-189,358	-0,063	-0,001
-550,612	-103,897	-0,116	0,020
-549,598	178,154	-0,040	0,044
-548,583	800,000	0,070	-0,144
-547,569	165,339	0,073	-0,076
-546,554	474,529	-0,023	-0,039
-545,539	800,000	-0,035	-0,073
-544,525	139,830	-0,037	0,036
-543,510	-102,030	-0,220	0,039
-542,496	-200,000	0,005	-0,084
-541,481	369,371	-0,040	-0,060
-540,466	-52,244	0,077	-0,026
-539,452	159,994	0,092	0,095
-538,437	20,269	-0,030	0,018
-537,423	190,336	0,077	-0,086
-536,408	-200,000	-0,020	0,097
-535,393	-40,990	0,066	0,025
-534,379	-200,000	-0,031	0,111
-533,364	39,398	0,092	0,061
-532,350	-14,169	0,099	-0,047
-531,335	572,644	-0,035	0,063
-530,321	-200,000	-0,035	-0,136
-529,306	-18,811	0,108	0,050
-528,291	14,019	-0,135	-0,077
-527,277	93,020	-0,020	-0,017
-526,262	98,918	-0,089	-0,076
-525,248	-200,000	-0,012	-0,159
-524,233	-200,000	-0,030	0,096
-523,218	-181,013	-0,119	-0,002
-522,204	379,289	0,063	0,096
-521,189	106,417	0,032	-0,028
-520,175	-145,738	-0,087	-0,006
-519,160	-200,000	-0,007	-0,088
-518,145	-42,326	0,114	0,043
-517,131	-63,683	0,046	-0,014
-516,116	-41,416	-0,033	-0,013
-515,102	-200,000	-0,036	-0,139
-514,087	-10,499	0,107	-0,052
-513,072	-27,894	-0,135	-0,058
-512,058	-53,181	-0,054	-0,018
-511,043	125,819	-0,085	-0,079
-510,029	-13,863	-0,041	0,020
-509,014	237,546	-0,077	-0,095
-507,999	62,442	-0,133	-0,098
-506,985	-200,000	-0,010	-0,177
-505,970	800,000	0,054	-0,111
-504,956	-48,907	0,090	0,032
-503,941	800,000	0,018	-0,037
-502,926	165,447	0,116	0,121
-501,912	175,594	0,037	-0,039
-500,897	800,000	-0,042	0,090
-499,883	97,937	0,060	0,051
-498,868	258,055	-0,099	-0,125
-497,853	-45,475	-0,035	-0,013
-496,839	-59,886	-0,191	0,060
-495,824	-200,000	0,032	0,119
-494,810	-130,133	0,034	-0,003
-493,795	17,361	-0,031	0,018
-492,781	544,675	-0,068	-0,120
-491,766	-151,924	-0,122	0,006
-490,751	328,443	-0,081	-0,115
-489,737	176,251	0,113	0,121
-488,722	23,241	0,043	-0,026
-487,708	-200,000	-0,028	0,093
-486,693	-200,000	-0,007	0,060
-485,678	752,575	0,032	-0,064
-484,664	424,621	0,071	-0,112
-483,649	58,252	0,050	-0,036
-482,635	162,876	-0,053	-0,055
-481,620	138,436	0,023	-0,022
-480,605	-94,248	-0,091	0,018
-479,591	118,947	0,106	0,097
-478,576	403,009	-0,080	-0,125
-477,562	-103,307	-0,033	0,006
-476,547	-200,000	0,013	0,078
-475,532	-2,230	0,096	-0,049
-474,518	296,251	0,080	0,108
-473,503	-200,000	0,019	0,127
-472,489	-200,000	-0,052	0,205
-471,474	189,898	0,056	0,062
-470,459	-129,148	0,071	0,007
-469,445	-61,257	0,151	-0,047
-468,430	19,112	-0,064	-0,038
-467,416	16,215	0,098	0,057
-466,401	-88,533	0,039	-0,009
-465,386	-47,212	-0,170	-0,061
-464,372	-84,845	0,095	0,022
-463,357	-200,000	-0,023	-0,100
-462,343	-39,169	0,023	0,009
-461,328	-104,335	0,166	-0,028
-460,313	-200,000	-0,005	-0,148
-459,299	-69,362	-0,100	-0,028
-458,284	78,908	0,022	0,017
-457,270	46,631	0,118	-0,080
-456,255	-88,198	0,083	-0,018
-455,241	-50,004	0,060	0,021
-454,226	800,000	-0,031	-0,065
-453,211	539,601	-0,029	0,050
-452,197	142,677	0,078	-0,076
-451,182	-102,017	-0,044	-0,008
-450,168	800,000	0,034	-0,104
-449,153	-112,944	0,100	0,014
-448,138	-200,000	-0,026	-0,137
-447,124	101,133	-0,062	0,053
-446,109	-91,421	0,127	-0,026
-445,095	160,448	-0,099	-0,101
-444,080	800,000	-0,045	0,120
-443,065	-200,000	0,001	-0,108
-442,051	190,188	-0,051	-0,057
-441,036	-200,000	-0,008	0,051
-440,022	800,000	0,089	0,182
-439,007	-111,983	0,021	-0,003
-437,992	48,454	0,151	0,104
-436,978	800,000	-0,016	-0,050
-435,963	-97,280	0,119	-0,023
-434,949	800,000	0,016	-0,036
-433,934	-83,505	-0,101	-0,024
-432,919	107,392	-0,074	0,065
-431,905	293,248	0,040	0,053
-430,890	423,317	-0,016	-0,026
-429,876	-115,203	-0,050	0,007
-428,861	-145,104	-0,082	-0,005
-427,846	-7,263	0,088	0,044
-426,832	-123,397	-0,084	0,010
-425,817	691,839	-0,038	-0,074
-424,803	24,326	-0,105	0,063
-423,788	114,788	-0,116	-0,104
-422,773	-89,185	0,036	-0,008
-421,759	61,888	0,100	-0,073
-420,744	-200,000	0,046	-0,184
-419,730	800,000	-0,022	0,047
-418,715	24,732	0,111	-0,067
-417,701	800,000	0,011	-0,029
-416,686	65,241	0,025	0,018
-415,671	318,341	-0,054	0,075
-414,657	-31,855	0,111	-0,045
-413,642	-200,000	0,010	0,116
-412,628	464,881	0,032	-0,052
-411,613	-162,307	0,024	-0,001
-410,598	800,000	-0,043	0,096
-409,584	-200,000	-0,013	-0,059
-408,569	546,436	0,071	0,126
-407,555	-200,000	-0,000	-0,074
-406,540	304,462	0,042	0,057
-405,525	171,940	0,094	-0,099
-404,511	-55,900	-0,044	0,014
-403,496	-200,000	-0,036	0,134
-402,482	-179,445	0,062	0,001
-401,467	108,141	0,078	0,068
-400,452	253,543	0,054	-0,068
-399,438	156,464	-0,011	-0,011
-398,423	-200,000	0,011	-0,041
-397,409	169,012	-0,061	-0,064
-396,394	12,951	-0,179	0,101
-395,379	-200,000	-0,021	0,067
-394,365	214,961	0,058	0,067
-393,350	378,228	0,074	-0,111
-392,336	-200,000	0,028	0,101
-391,321	-107,830	-0,019	-0,003
-390,306	273,051	-0,043	-0,056
-389,292	65,471	-0,085	-0,063
-388,277	-112,680	-0,059	-0,009
-387,263	-18,717	-0,070	-0,032
-386,248	297,062	0,073	0,099
-385,233	-130,101	-0,109	-0,011
-384,219	311,873	-0,062	-0,085
-383,204	800,000	0,045	-0,093
-382,190	-116,535	-0,092	0,012
-381,175	164,570	-0,050	0,052
-380,160	-19,861	0,072	0,033
-379,146	-200,000	0,003	-0,063
-378,131	-200,000	0,005	-0,034
-377,117	-133,790	-0,134	0,012
-376,102	-112,218	-0,016	0,002
-375,088	654,020	0,037	0,070
-374,073	249,198	-0,125	0,155
-373,058	800,000	0,044	0,113
-372,044	33,815	0,140	0,089
-371,029	-200,000	0,005	-0,024
-370,015	-73,664	-0,050	-0,013
-369,000	447,795	-0,069	0,112
-367,985	12,375	0,051	0,029
-366,971	18,606	-0,029	0,017
-365,956	800,000	0,010	0,026
-364,942	-18,736	0,061	-0,028
-363,927	-200,000	0,015	0,131
-362,912	-112,809	-0,072	0,010
-361,898	46,563	-0,042	-0,029
-360,883	800,000	-0,049	0,153
-359,869	382,774	0,034	0,051
-358,854	-200,000	0,002	-0,047
-357,839	-128,119	0,101	0,010
-356,825	-200,000	-0,006	0,164
-355,810	12,855	-0,071	-0,040
-354,796	379,565	-0,087	0,132
-353,781	-200,000	-0,040	0,130
-352,766	502,054	0,085	-0,144
-351,752	-200,000	0,003	0,021
-350,737	-60,890	0,012	0,004
-349,723	-5,676	0,082	-0,041
-348,708	-35,353	-0,067	0,027
-347,693	-200,000	0,003	-0,089
-346,679	-16,063	-0,090	-0,042
-345,664	800,000	0,007	0,019
-344,650	-17,294	-0,064	0,029
-343,635	264,608	0,030	0,038
-342,620	-78,924	0,048	0,012
-341,606	71,010	0,131	0,099
-340,591	-26,351	0,163	-0,070
-339,577	-200,000	0,020	0,129
-338,562	116,164	0,009	-0,008
-337,548	-112,650	-0,076	0,011
-336,533	313,703	0,097	0,134
-335,518	58,346	0,067	-0,048
-334,504	-200,000	0,005	0,163
-333,489	-200,000	0,015	-0,050
-332,475	199,515	-0,102	-0,114
-331,460	-58,562	-0,107	-0,034
-330,445	403,270	-0,016	-0,025
-329,431	800,000	0,013	-0,036
-328,416	-10,439	-0,065	-0,031
-327,402	-1,663	0,091	-0,047
-326,387	-101,022	0,069	0,012
-325,372	129,272	-0,070	-0,066
-324,358	-200,000	-0,023	-0,092
-323,343	68,317	0,105	0,079
-322,329	30,572	-0,086	0,054
-321,314	-108,935	-0,093	-0,014
-320,299	-23,262	0,109	0,048
-319,285	-200,000	-0,008	0,095
-318,270	-200,000	-0,004	0,080
-317,256	366,166	0,061	0,091
-316,241	-105,205	0,061	0,010
-315,226	4,707	0,099	-0,053
-314,212	778,086	0,008	-0,016
-313,197	237,308	-0,047	0,057
-312,183	-200,000	0,005	-0,051
-311,168	800,000	-0,029	-0,077
-310,153	65,699	0,052	-0,039
-309,139	-97,730	-0,067	-0,013
-308,124	-200,000	0,023	-0,182
-307,110	800,000	0,009	-0,017
-306,095	-200,000	0,039	0,147
-305,080	-200,000	0,003	0,127
-304,066	-200,000	-0,002	-0,029
-303,051	588,057	-0,061	-0,111
-302,037	800,000	-0,032	-0,078
-301,022	-9,739	0,090	0,044
-300,008	-200,000	-0,005	0,051
-298,993	-200,000	-0,013	0,080
-297,978	175,131	0,020	-0,021
-296,964	-200,000	0,025	-0,123
-295,949	-109,435	-0,042	-0,006
-294,935	-200,000	0,004	-0,061
-293,920	-200,000	-0,009	0,074
-292,905	-200,000	-0,009	-0,110
-291,891	-76,551	0,086	0,022
-290,876	-123,038	0,106	-0,012
-289,862	-200,000	0,019	0,087
-288,847	-56,651	-0,151	-0,048
-287,832	-65,474	0,074	0,022
-286,818	-62,501	0,110	-0,033
-285,803	-140,405	0,068	0,005
-284,789	122,549	0,113	0,104
-283,774	-200,000	-0,021	-0,070
-282,759	46,727	0,093	-0,063
-281,745	-200,000	-0,012	0,083
-280,730	760,273	-0,025	-0,049
-279,716	16,197	0,053	0,030
-278,701	-143,161	0,109	0,008
-277,686	-200,000	-0,005	-0,027
-276,672	-200,000	-0,002	-0,015
-275,657	26,420	0,132	0,081
-274,643	-200,000	0,007	0,127
-273,628	800,000	-0,014	-0,030
-272,613	-200,000	0,006	-0,069
-271,599	127,725	0,054	-0,050
-270,584	284,780	-0,035	0,046
-269,570	37,393	-0,067	0,044
-268,555	106,631	-0,042	-0,036
-267,540	-39,551	0,058	-0,022
-266,526	224,107	-0,041	0,049
-265,511	40,383	0,051	-0,033
-264,497	-6,116	0,128	-0,064
-263,482	31,673	0,053	0,033
-262,467	87,903	0,094	0,076
-261,453	-200,000	0,018	-0,117
-260,438	-200,000	0,004	-0,117
-259,424	151,599	0,093	-0,093
-258,409	-35,828	-0,098	0,039
-257,395	-32,116	0,084	-0,034
-256,380	131,421	0,064	0,060
-255,365	-128,395	0,086	0,009
-254,351	37,961	-0,033	-0,021
-253,336	96,985	0,022	-0,019
-252,322	401,749	0,061	-0,094
-251,307	-119,556	0,048	0,006
-250,292	84,722	-0,047	-0,038
-249,278	19,762	-0,066	-0,039
-248,263	-200,000	-0,003	-0,031
-247,249	800,000	-0,038	0,086
-246,234	166,787	0,030	-0,031
-245,219	800,000	-0,016	0,039
-244,205	-200,000	-0,007	-0,037
-243,190	-200,000	0,014	-0,108
-242,176	-200,000	-0,016	0,119
-241,161	53,180	-0,015	-0,010
-240,146	-200,000	0,033	0,183
-239,132	-172,300	0,071	-0,002
-238,117	800,000	-0,026	-0,064
-237,103	800,000	0,026	-0,063
-236,088	6,170	0,108	0,058
-235,073	-200,000	-0,014	0,064
-234,059	-200,000	-0,001	-0,027
-233,044	36,979	0,103	0,066
-232,030	173,113	-0,070	0,073
-231,015	14,289	0,086	0,049
-230,000	138,340	0,036	-0,034
-228,986	-137,476	-0,064	-0,005
-227,971	-200,000	-0,000	-0,002
-226,957	-200,000	-0,011	0,050
-225,942	-28,955	0,052	-0,022
-224,927	-72,103	-0,137	-0,037
-223,913	800,000	0,024	-0,049
-222,898	172,111	0,029	0,031
-221,884	54,363	0,055	-0,039
-220,869	272,943	0,048	0,062
-219,855	769,096	0,020	-0,040
-218,840	-93,470	-0,034	-0,007
-217,825	422,985	-0,090	0,142
-216,811	-200,000	0,001	-0,008
-215,796	144,791	-0,013	0,013
-214,782	251,562	-0,028	0,035
-213,767	48,379	-0,137	0,094
-212,752	-200,000	-0,033	0,126
-211,738	90,145	-0,063	0,051
-210,723	-66,085	-0,105	-0,030
-209,709	184,698	-0,054	0,058
-208,694	-200,000	-0,012	0,090
-207,679	272,926	-0,098	0,126
-206,665	734,524	0,014	0,028
-205,650	581,877	0,071	0,128
-204,636	-200,000	-0,001	-0,016
-203,621	-200,000	-0,025	-0,221
-202,606	-118,034	-0,127	-0,016
-201,592	173,920	0,046	-0,049
-200,577	-15,496	-0,079	0,037
-199,563	283,265	-0,034	-0,044
-198,548	144,043	0,026	0,025
-197,533	11,139	-0,056	-0,031
-196,519	-20,107	0,033	0,015
-195,504	800,000	0,051	-0,160
-194,490	178,040	-0,073	-0,078
-193,475	800,000	0,023	-0,055
-192,460	800,000	0,053	0,168
-191,446	-74,657	-0,080	0,021
-190,431	-42,795	0,114	-0,042
-189,417	304,850	-0,047	0,064
-188,402	-87,692	-0,001	-0,000
-187,387	135,137	0,051	0,048
-186,373	800,000	-0,038	-0,091
-185,358	-73,411	0,130	-0,034
-184,344	-105,190	0,142	-0,023
-183,329	-145,133	-0,055	-0,004
-182,315	-200,000	-0,005	-0,027
-181,300	394,155	-0,037	-0,057
-180,285	138,905	-0,059	0,057
-179,271	-200,000	-0,004	0,018
-178,256	-43,369	0,156	0,057
-177,242	-54,169	0,066	0,022
-176,227	531,170	0,105	0,182
-175,212	16,484	0,056	0,032
-174,198	-121,909	0,145	0,017
-173,183	-91,874	0,059	0,012
-172,169	-200,000	-0,034	-0,131
-171,154	172,682	-0,048	-0,051
-170,139	-200,000	-0,011	0,040
-169,125	-48,724	0,079	-0,027
-168,110	-200,000	-0,009	-0,133
-167,096	-200,000	-0,000	0,028
-166,081	-200,000	-0,034	-0,144
-165,066	-200,000	-0,041	-0,147
-164,052	-124,367	-0,160	-0,018
-163,037	145,636	-0,013	-0,013
-162,023	92,034	0,099	0,081
-161,008	-114,652	-0,052	0,007
-159,993	-73,735	-0,141	0,037
-158,979	53,022	-0,080	-0,056
-157,964	-36,399	0,147	-0,057
-156,950	-63,223	-0,181	-0,054
-155,935	-142,407	0,150	-0,011
-154,920	167,739	-0,024	0,025
-153,906	113,067	-0,058	0,051
-152,891	-200,000	0,008	0,032
-151,877	800,000	-0,017	-0,035
-150,862	-200,000	-0,003	-0,097
-149,847	-200,000	0,038	-0,133
-148,833	800,000	0,033	-0,079
-147,818	69,875	0,056	0,042
-146,804	425,269	-0,014	0,023
-145,789	321,838	-0,114	-0,158
-144,775	800,000	-0,015	0,040
-143,760	-74,764	0,079	-0,020
-142,745	-200,000	-0,005	-0,037
-141,731	345,005	-0,062	0,088
-140,716	653,064	0,064	-0,121
-139,702	-107,481	0,079	-0,012
-138,687	179,264	-0,040	-0,043
-137,672	-9,060	0,094	0,046
-136,658	303,537	-0,021	0,028
-135,643	12,069	0,048	-0,027
-134,629	-71,971	-0,079	-0,021
-133,614	-40,493	0,051	0,019
-132,599	-200,000	-0,022	-0,116
-131,585	-200,000	0,026	0,091
-130,570	-200,000	0,002	0,020
-129,556	-103,319	-0,053	0,009
-128,541	-106,874	0,062	-0,010
-127,526	-84,514	-0,070	0,016
-126,512	78,165	0,074	0,057
-125,497	169,077	-0,031	0,032
-124,483	789,966	-0,018	-0,036
-123,468	800,000	0,006	0,013
-122,453	54,635	0,082	0,057
-121,439	229,040	0,094	-0,112
-120,424	199,338	-0,093	0,103
