DTS Sentinel unit serial number:	SN410029Multiplexer serial number:	ORYXHardware model number:	OX2-SRSoftware version number:	ORYX F/W v4,00 Oryx Data Collector v3.7.2.0data status	okinstallation	B6 Nyhavnadifferential loss correction	single-endedforward channel	channel 2reverse channel	N/Adate	2023/12/11time	01:05:08forward acquisition time	300,00reverse acquisition time	0,00gamma	499,1914k internal	0,3122k external	0,3122temperature offset calibration	1,0000default loss term (dB/km)	0,3820temperature slope calibration	1,0000multiplexer offset coefficient	1,0000multiplexer slope coefficient	1,0000fibre end	0,00T internal ref (°C)	22,21T ext. ref 1 (°C)	5,55T ext. ref 2 (°C)	5,58length (m)	temperature (°C)	Stokes	anti-Stokes-744,400	-103,090	0,040	-0,007
-743,385	-89,289	-0,238	0,052
-742,371	699,236	0,078	-0,155
-741,356	-1,500	-0,158	0,083
-740,342	-200,000	0,019	0,078
-739,327	-34,765	-0,253	0,103
-738,312	-200,000	0,015	-0,182
-737,298	67,864	-0,252	0,192
-736,283	79,329	0,152	-0,121
-735,269	-97,978	-0,172	-0,033
-734,254	-200,000	0,010	-0,063
-733,239	-51,939	-0,412	-0,142
-732,225	-106,669	0,124	-0,020
-731,210	143,415	-0,052	0,052
-730,196	800,000	-0,072	-0,194
-729,181	750,654	0,025	-0,051
-728,167	-171,395	-0,120	-0,003
-727,152	373,472	0,041	-0,062
-726,137	-200,000	-0,016	-0,057
-725,123	178,859	-0,154	-0,168
-724,108	404,875	0,031	-0,049
-723,094	21,856	-0,121	-0,073
-722,079	800,000	0,086	-0,192
-721,064	800,000	-0,024	-0,073
-720,050	38,009	0,046	0,031
-719,035	-70,515	-0,107	-0,030
-718,021	-10,323	-0,059	-0,029
-717,006	31,096	-0,117	-0,075
-715,991	-141,333	0,080	-0,006
-714,977	-51,061	-0,150	-0,052
-713,962	-92,590	-0,093	-0,019
-712,948	44,436	-0,082	0,056
-711,933	-200,000	0,011	-0,103
-710,918	-200,000	-0,028	-0,140
-709,904	288,658	-0,068	-0,091
-708,889	-200,000	-0,007	0,081
-707,875	-70,733	-0,140	0,039
-706,860	-200,000	-0,011	0,039
-705,845	800,000	-0,025	0,056
-704,831	-11,724	-0,036	0,017
-703,816	169,253	-0,069	-0,073
-702,802	-110,943	-0,153	-0,023
-701,787	-80,877	-0,067	-0,016
-700,772	148,121	-0,014	-0,014
-699,758	-200,000	-0,005	0,119
-698,743	800,000	-0,009	-0,021
-697,729	119,147	-0,096	0,089
-696,714	800,000	-0,042	0,102
-695,699	200,508	-0,030	-0,034
-694,685	515,291	-0,018	-0,032
-693,670	301,755	-0,037	-0,052
-692,656	103,518	-0,047	0,041
-691,641	-200,000	-0,007	-0,034
-690,627	-200,000	0,042	0,144
-689,612	210,115	0,103	0,120
-688,597	800,000	0,049	0,103
-687,583	112,322	-0,072	-0,065
-686,568	-200,000	-0,005	-0,113
-685,554	800,000	0,044	-0,102
-684,539	15,519	0,114	0,067
-683,524	308,627	0,076	-0,106
-682,510	-79,766	-0,032	0,008
-681,495	12,075	-0,081	-0,046
-680,481	0,105	-0,150	0,079
-679,466	-200,000	-0,023	-0,148
-678,451	800,000	-0,011	-0,027
-677,437	-128,173	-0,101	0,011
-676,422	-42,993	-0,047	0,017
-675,408	800,000	0,043	0,109
-674,393	800,000	-0,045	0,101
-673,378	-6,302	-0,086	0,044
-672,364	74,586	-0,182	-0,143
-671,349	70,886	0,017	-0,013
-670,335	-200,000	0,011	-0,045
-669,320	0,479	-0,029	0,016
-668,305	800,000	0,055	0,139
-667,291	-64,970	-0,138	-0,041
-666,276	279,938	-0,047	0,063
-665,262	-101,182	-0,117	0,021
-664,247	800,000	-0,013	0,038
-663,232	151,888	-0,102	-0,104
-662,218	-80,620	0,026	-0,006
-661,203	116,961	-0,047	0,043
-660,189	74,311	-0,130	0,102
-659,174	113,222	0,093	-0,084
-658,159	-2,515	-0,128	-0,067
-657,145	-200,000	-0,019	-0,084
-656,130	613,818	-0,015	-0,027
-655,116	331,705	0,055	-0,079
-654,101	-200,000	-0,007	0,077
-653,086	-200,000	0,007	-0,147
-652,072	-200,000	-0,003	-0,129
-651,057	132,568	0,060	-0,058
-650,043	-200,000	-0,014	-0,091
-649,028	167,707	-0,032	0,034
-648,014	800,000	-0,014	-0,040
-646,999	538,057	-0,050	0,088
-645,984	-73,758	-0,065	-0,017
-644,970	-56,945	-0,123	-0,040
-643,955	-104,771	-0,080	-0,014
-642,941	800,000	-0,047	-0,116
-641,926	-200,000	-0,004	-0,083
-640,911	-200,000	-0,012	-0,126
-639,897	697,816	-0,094	0,184
-638,882	-200,000	-0,046	-0,166
-637,868	-124,818	-0,099	0,011
-636,853	44,391	0,150	-0,102
-635,838	254,896	0,105	-0,134
-634,824	-200,000	-0,007	-0,033
-633,809	-18,050	0,036	-0,017
-632,795	390,796	0,029	0,045
-631,780	631,337	0,025	-0,047
-630,765	96,344	0,126	-0,107
-629,751	-200,000	0,019	-0,117
-628,736	47,257	-0,061	-0,042
-627,722	518,124	-0,126	-0,220
-626,707	-16,389	-0,088	-0,041
-625,692	88,033	-0,016	0,013
-624,678	-131,036	-0,079	0,008
-623,663	-200,000	-0,023	-0,094
-622,649	109,216	0,073	-0,064
-621,634	800,000	0,016	-0,048
-620,619	-200,000	0,021	0,110
-619,605	-200,000	0,023	0,130
-618,590	800,000	-0,024	0,057
-617,576	-200,000	-0,020	0,083
-616,561	-200,000	0,010	-0,086
-615,546	800,000	-0,070	-0,173
-614,532	-200,000	0,009	0,054
-613,517	22,578	-0,077	-0,047
-612,503	800,000	-0,048	-0,144
-611,488	-200,000	-0,004	-0,097
-610,474	205,382	0,045	0,052
-609,459	-200,000	0,034	0,126
-608,444	70,538	-0,068	-0,052
-607,430	800,000	-0,025	0,076
-606,415	25,716	-0,126	0,078
-605,401	-200,000	0,007	0,044
-604,386	135,073	-0,083	0,080
-603,371	21,579	0,131	0,079
-602,357	-200,000	-0,009	0,034
-601,342	-4,498	0,027	0,014
-600,328	-95,757	-0,136	0,027
-599,313	410,209	-0,034	-0,053
-598,298	104,417	0,119	-0,104
-597,284	61,359	0,113	0,083
-596,269	373,743	-0,042	-0,063
-595,255	78,670	-0,080	-0,063
-594,240	-200,000	-0,035	0,117
-593,225	-200,000	-0,041	-0,145
-592,211	261,990	-0,038	0,049
-591,196	752,548	0,027	-0,053
-590,182	-70,326	-0,039	0,011
-589,167	430,780	0,021	0,033
-588,152	37,194	-0,077	0,050
-587,138	-200,000	-0,011	-0,167
-586,123	108,912	0,092	-0,082
-585,109	-200,000	-0,002	0,237
-584,094	800,000	0,069	0,181
-583,079	96,946	0,031	0,027
-582,065	800,000	0,024	-0,068
-581,050	-200,000	0,000	0,013
-580,036	225,016	-0,069	0,083
-579,021	-46,528	-0,181	-0,066
-578,006	43,848	-0,057	-0,039
-576,992	-80,343	0,080	0,020
-575,977	10,151	-0,075	0,042
-574,963	302,903	-0,072	-0,099
-573,948	-200,000	-0,021	-0,104
-572,934	-200,000	0,000	0,005
-571,919	800,000	-0,024	-0,067
-570,904	48,124	0,035	-0,024
-569,890	-53,024	0,102	-0,035
-568,875	-48,206	0,050	-0,018
-567,861	7,769	0,047	-0,026
-566,846	-89,817	0,081	-0,018
-565,831	-200,000	0,025	-0,153
-564,817	195,265	-0,029	0,032
-563,802	-145,947	-0,094	-0,006
-562,788	153,373	0,117	-0,119
-561,773	-41,826	0,127	0,048
-560,758	-172,666	0,023	0,001
-559,744	800,000	0,032	0,084
-558,729	248,766	0,044	0,055
-557,715	396,423	0,062	0,097
-556,700	39,367	-0,148	-0,098
-555,685	800,000	0,072	-0,155
-554,671	-200,000	0,011	-0,129
-553,656	-200,000	0,038	-0,210
-552,642	-64,557	-0,014	0,004
-551,627	800,000	-0,016	0,035
-550,612	-128,072	0,075	0,008
-549,598	800,000	0,075	-0,161
-548,583	800,000	-0,044	-0,094
-547,569	88,225	0,042	-0,034
-546,554	-5,415	0,139	0,070
-545,539	-200,000	0,008	-0,055
-544,525	136,424	0,068	-0,065
-543,510	54,057	-0,139	0,099
-542,496	-16,479	-0,075	0,035
-541,481	132,419	-0,046	-0,044
-540,466	9,929	-0,049	0,027
-539,452	60,492	0,111	-0,081
-538,437	800,000	0,064	0,143
-537,423	93,345	0,091	-0,076
-536,408	-56,590	-0,055	0,018
-535,393	-139,127	-0,066	-0,005
-534,379	165,212	-0,060	0,063
-533,364	399,508	-0,011	-0,017
-532,350	-7,490	0,074	0,037
-531,335	-200,000	-0,031	0,125
-530,321	-200,000	0,018	0,063
-529,306	800,000	-0,029	-0,094
-528,291	800,000	0,029	0,081
-527,277	-200,000	0,012	-0,085
-526,262	77,409	-0,050	-0,039
-525,248	-200,000	0,024	-0,131
-524,233	111,450	-0,086	-0,077
-523,218	-100,536	0,153	0,028
-522,204	161,658	-0,056	0,058
-521,189	800,000	0,043	0,093
-520,175	-101,297	0,049	-0,009
-519,160	-200,000	0,017	0,095
-518,145	60,868	-0,015	-0,011
-517,131	23,834	-0,071	-0,043
-516,116	-59,261	-0,037	0,012
-515,102	-177,451	0,031	-0,001
-514,087	-96,262	0,033	0,006
-513,072	-69,938	-0,105	-0,029
-512,058	181,711	0,059	-0,064
-511,043	800,000	-0,042	-0,106
-510,029	-45,663	0,121	0,044
-509,014	605,325	0,038	0,069
-507,999	800,000	0,059	0,150
-506,985	-200,000	-0,019	-0,075
-505,970	13,497	-0,049	0,028
-504,956	-97,351	0,055	-0,010
-503,941	-32,186	-0,075	0,031
-502,926	-126,936	-0,104	-0,011
-501,912	-200,000	-0,021	0,099
-500,897	800,000	0,033	0,090
-499,883	800,000	-0,053	-0,136
-498,868	-118,082	0,057	0,007
-497,853	266,972	-0,143	-0,186
-496,839	800,000	-0,067	0,162
-495,824	-96,343	-0,041	-0,008
-494,810	154,774	-0,071	0,072
-493,795	343,470	0,046	0,067
-492,781	153,149	-0,111	0,112
-491,766	800,000	-0,026	-0,056
-490,751	245,256	-0,060	-0,075
-489,737	-200,000	-0,025	0,096
-488,722	92,045	0,095	-0,079
-487,708	-38,910	0,221	-0,086
-486,693	800,000	-0,012	0,027
-485,678	20,910	0,133	0,079
-484,664	-78,485	-0,023	-0,006
-483,649	153,645	0,086	-0,087
-482,635	73,233	-0,027	0,021
-481,620	78,935	0,115	-0,090
-480,605	50,605	0,072	-0,051
-479,591	-200,000	-0,030	0,099
-478,576	28,191	0,108	0,067
-477,562	67,102	0,058	0,044
-476,547	62,686	0,081	0,060
-475,532	-117,955	-0,050	0,007
-474,518	-108,916	0,112	0,017
-473,503	800,000	0,019	0,059
-472,489	4,908	-0,070	0,038
-471,474	800,000	-0,020	0,051
-470,459	-108,654	0,041	-0,006
-469,445	-83,471	-0,154	-0,036
-468,430	-200,000	-0,015	-0,117
-467,416	485,830	-0,034	0,058
-466,401	-11,121	0,095	-0,046
-465,386	-102,759	0,029	-0,005
-464,372	235,785	0,040	0,049
-463,357	150,274	-0,104	-0,104
-462,343	-74,058	-0,160	-0,042
-461,328	280,410	0,059	-0,077
-460,313	-144,886	-0,042	0,003
-459,299	-88,751	0,026	0,006
-458,284	-200,000	-0,018	-0,077
-457,270	44,672	-0,053	0,036
-456,255	-200,000	0,024	0,152
-455,241	-200,000	-0,011	-0,085
-454,226	-200,000	0,019	-0,073
-453,211	-43,347	0,102	0,038
-452,197	-200,000	-0,008	-0,050
-451,182	-19,452	0,069	0,032
-450,168	200,586	0,102	-0,116
-449,153	-18,944	-0,079	-0,036
-448,138	800,000	-0,028	-0,079
-447,124	17,729	-0,082	0,048
-446,109	719,947	-0,033	0,064
-445,095	800,000	-0,025	0,077
-444,080	800,000	-0,050	0,153
-443,065	-6,918	-0,138	0,069
-442,051	300,506	-0,018	-0,024
-441,036	369,986	-0,060	-0,090
-440,022	-200,000	-0,006	-0,036
-439,007	-200,000	-0,009	-0,033
-437,992	-200,000	0,000	-0,036
-436,978	118,629	0,127	0,115
-435,963	-200,000	0,020	0,085
-434,949	-90,879	0,079	-0,017
-433,934	608,040	-0,075	-0,139
-432,919	129,254	0,070	-0,066
-431,905	-60,291	0,119	0,037
-430,890	156,764	-0,073	0,075
-429,876	800,000	0,014	0,028
-428,861	800,000	-0,055	0,130
-427,846	678,186	-0,056	0,108
-426,832	-12,273	-0,082	0,039
-425,817	162,466	-0,039	0,040
-424,803	-88,295	-0,080	-0,017
-423,788	-200,000	0,012	-0,076
-422,773	20,582	0,232	-0,138
-421,759	-13,889	-0,055	-0,026
-420,744	222,429	0,050	-0,059
-419,730	-30,070	0,046	-0,019
-418,715	114,994	-0,106	-0,095
-417,701	0,523	0,069	0,036
-416,686	-117,814	0,203	-0,027
-415,671	463,556	0,058	0,096
-414,657	-54,007	0,075	-0,025
-413,642	800,000	-0,026	0,056
-412,628	800,000	0,030	-0,091
-411,613	-139,693	-0,101	0,008
-410,598	-106,269	-0,036	0,006
-409,584	153,686	-0,038	0,038
-408,569	-200,000	-0,034	0,170
-407,555	113,046	-0,104	-0,093
-406,540	-200,000	0,012	-0,058
-405,525	-200,000	-0,007	-0,033
-404,511	-111,894	0,029	-0,004
-403,496	800,000	-0,037	-0,088
-402,482	-154,932	-0,034	0,002
-401,467	800,000	0,043	-0,098
-400,452	337,314	0,052	0,075
-399,438	-200,000	0,035	0,116
-398,423	-200,000	-0,006	-0,021
-397,409	-72,110	0,204	0,055
-396,394	-122,411	-0,207	0,025
-395,379	535,840	0,049	-0,086
-394,365	-49,035	0,087	-0,030
-393,350	800,000	-0,035	0,075
-392,336	-0,110	-0,105	0,055
-391,321	267,746	-0,021	-0,028
-390,306	216,932	-0,123	-0,144
-389,292	-3,673	0,144	-0,073
-388,277	-52,189	0,097	-0,033
-387,263	800,000	-0,053	0,123
-386,248	800,000	0,018	0,048
-385,233	-61,287	0,143	0,044
-384,219	754,390	-0,029	-0,057
-383,204	409,100	-0,087	-0,135
-382,190	-80,548	-0,075	-0,018
-381,175	-108,304	-0,059	0,009
-380,160	-200,000	-0,005	-0,035
-379,146	-200,000	-0,035	0,000
-378,131	800,000	0,032	-0,103
-377,117	-200,000	0,004	0,016
-376,102	-159,998	-0,044	0,002
-375,088	64,656	0,055	-0,041
-374,073	-200,000	0,002	0,028
-373,058	449,780	-0,031	0,050
-372,044	533,679	0,019	0,032
-371,029	56,040	0,103	-0,074
-370,015	634,996	-0,032	0,060
-369,000	800,000	-0,055	0,120
-367,985	-200,000	0,008	-0,084
-366,971	800,000	0,017	0,044
-365,956	10,545	0,110	-0,061
-364,942	-38,791	-0,067	0,026
-363,927	-92,362	-0,099	0,020
-362,912	727,696	0,028	0,055
-361,898	-133,437	0,107	0,010
-360,883	-200,000	-0,016	-0,062
-359,869	676,140	-0,015	-0,029
-358,854	800,000	0,024	0,059
-357,839	-72,943	0,107	0,029
-356,825	10,943	-0,020	-0,011
-355,810	-190,763	0,072	-0,001
-354,796	-200,000	0,029	-0,112
-353,781	328,982	0,013	0,019
-352,766	-42,741	-0,070	-0,026
-351,752	51,648	0,094	0,065
-350,737	17,742	0,027	0,016
-349,723	23,378	0,068	0,041
-348,708	-39,182	0,059	-0,023
-347,693	160,245	-0,033	0,034
-346,679	313,543	-0,031	0,043
-345,664	800,000	-0,058	0,186
-344,650	378,656	0,075	0,113
-343,635	359,993	0,005	-0,008
-342,620	-200,000	0,004	0,093
-341,606	-126,993	0,120	-0,013
-340,591	-70,968	-0,047	-0,013
-339,577	-200,000	0,013	0,153
-338,562	-65,754	0,084	-0,025
-337,548	-33,908	-0,123	-0,050
-336,533	800,000	0,061	0,162
-335,518	-11,720	-0,115	0,055
-334,504	-38,433	-0,055	0,021
-333,489	-39,934	-0,148	0,056
-332,475	-25,446	-0,088	-0,038
-331,460	-200,000	0,013	0,105
-330,445	-15,524	-0,091	-0,043
-329,431	-0,570	-0,021	0,011
-328,416	-20,671	0,084	0,038
-327,402	-6,875	0,025	-0,013
-326,387	-143,459	0,066	-0,005
-325,372	184,447	-0,089	-0,097
-324,358	374,989	-0,074	-0,111
-323,343	-188,980	0,062	0,001
-322,329	-86,952	-0,104	0,023
-321,314	-1,152	0,069	-0,036
-320,299	71,256	0,119	-0,091
-319,285	421,442	-0,014	0,021
-318,270	693,468	0,052	0,100
-317,256	-200,000	0,016	-0,079
-316,241	-200,000	-0,024	-0,101
-315,226	122,259	-0,023	0,021
-314,212	-200,000	0,009	-0,067
-313,197	147,076	-0,036	-0,035
-312,183	-171,385	0,154	-0,004
-311,168	800,000	0,037	0,076
-310,153	-200,000	-0,000	0,040
-309,139	-120,602	0,054	-0,007
-308,124	-7,064	0,059	0,029
-307,110	-200,000	0,009	0,094
-306,095	109,099	0,058	0,051
-305,080	29,041	0,119	0,074
-304,066	-200,000	-0,020	-0,107
-303,051	800,000	-0,023	-0,067
-302,037	-200,000	0,028	-0,133
-301,022	-9,578	0,036	0,018
-300,008	800,000	-0,054	0,170
-298,993	-0,864	0,044	0,023
-297,978	-200,000	-0,050	0,168
-296,964	-9,255	-0,056	0,028
-295,949	-200,000	0,014	0,143
-294,935	185,093	-0,062	0,067
-293,920	800,000	0,048	0,130
-292,905	-32,264	0,069	-0,028
-291,891	78,074	0,065	0,051
-290,876	167,433	-0,115	0,120
-289,862	-200,000	-0,026	-0,099
-288,847	-134,795	0,030	-0,003
-287,832	-200,000	-0,004	0,059
-286,818	-103,219	-0,138	0,024
-285,803	491,676	0,063	0,107
-284,789	800,000	0,058	0,132
-283,774	283,042	0,067	0,088
-282,759	-157,678	-0,055	0,002
-281,745	-200,000	0,002	0,012
-280,730	-75,882	-0,157	0,040
-279,716	-200,000	-0,000	-0,065
-278,701	-191,290	-0,031	-0,000
-277,686	-200,000	0,029	0,160
-276,672	-52,241	0,058	-0,020
-275,657	-200,000	0,027	-0,101
-274,643	69,642	-0,065	0,049
-273,628	174,975	-0,063	-0,066
-272,613	43,756	0,031	-0,021
-271,599	318,214	0,035	-0,048
-270,584	-200,000	0,008	-0,065
-269,570	-141,219	0,012	-0,001
-268,555	800,000	0,066	0,159
-267,540	424,766	-0,008	0,012
-266,526	-63,795	0,082	-0,025
-265,511	800,000	0,017	0,041
-264,497	134,395	-0,076	0,072
-263,482	359,713	0,040	-0,059
-262,467	1,602	-0,096	-0,050
-261,453	-172,453	-0,095	0,002
-260,438	458,854	-0,019	-0,032
-259,424	33,187	0,156	-0,098
-258,409	-200,000	-0,053	-0,243
-257,395	53,539	0,011	-0,008
-256,380	149,374	-0,030	0,030
-255,365	-71,779	-0,052	0,014
-254,351	128,717	0,036	-0,034
-253,336	-59,286	-0,137	-0,043
-252,322	-101,444	0,083	-0,015
-251,307	132,694	-0,077	0,072
-250,292	-200,000	-0,018	-0,102
-249,278	-200,000	-0,009	0,091
-248,263	45,269	0,116	0,078
-247,249	-89,937	0,098	-0,021
-246,234	497,789	0,076	-0,129
-245,219	20,545	0,053	0,031
-244,205	300,045	0,041	-0,056
-243,190	5,289	0,014	0,007
-242,176	470,679	0,095	0,156
-241,161	-5,680	0,046	0,023
-240,146	-200,000	-0,003	-0,132
-239,132	60,815	-0,183	-0,133
-238,117	-50,275	-0,134	-0,046
-237,103	-200,000	0,026	-0,100
-236,088	43,739	0,099	0,066
-235,073	-200,000	0,008	0,078
-234,059	800,000	-0,032	-0,099
-233,044	-69,556	0,012	-0,003
-232,030	-200,000	-0,009	-0,090
-231,015	800,000	-0,024	-0,054
-230,000	246,887	-0,045	-0,055
-228,986	-200,000	0,007	-0,039
-227,971	-78,942	0,145	0,036
-226,957	-42,759	-0,015	0,005
-225,942	-93,873	-0,090	-0,018
-224,927	-200,000	-0,023	0,086
-223,913	-200,000	0,008	0,068
-222,898	800,000	-0,022	0,063
-221,884	420,915	-0,060	-0,094
-220,869	60,095	-0,049	-0,036
-219,855	-94,626	0,014	0,003
-218,840	7,469	-0,124	0,067
-217,825	629,324	-0,050	-0,094
-216,811	167,781	0,021	0,021
-215,796	800,000	-0,032	0,101
-214,782	268,614	-0,067	0,086
-213,767	367,433	0,042	0,062
-212,752	-200,000	-0,003	0,106
-211,738	-74,667	0,086	0,022
-210,723	-200,000	-0,014	0,081
-209,709	-200,000	-0,016	-0,076
-208,694	59,371	-0,039	0,028
-207,679	588,392	-0,041	-0,073
-206,665	-200,000	0,013	0,057
-205,650	-200,000	0,013	-0,071
-204,636	-90,041	0,192	0,040
-203,621	800,000	-0,045	-0,140
-202,606	95,881	-0,044	-0,037
-201,592	-43,847	-0,083	0,030
-200,577	601,856	0,050	-0,091
-199,563	-200,000	0,001	0,121
-198,548	150,311	-0,048	0,048
-197,533	116,440	0,091	0,082
-196,519	299,214	-0,125	-0,169
-195,504	800,000	0,018	0,041
-194,490	-200,000	-0,031	-0,212
-193,475	8,651	0,057	-0,031
-192,460	29,204	0,047	-0,029
-191,446	-103,856	-0,075	0,013
-190,431	-200,000	0,034	0,145
-189,417	159,417	0,103	0,105
-188,402	-200,000	-0,028	0,097
-187,387	-167,839	-0,042	-0,001
-186,373	800,000	-0,027	0,068
-185,358	-36,811	-0,170	0,066
-184,344	-200,000	-0,003	-0,012
-183,329	-200,000	-0,004	0,081
-182,315	314,592	0,081	-0,111
-181,300	-152,304	0,052	0,003
-180,285	81,801	-0,064	0,051
-179,271	-42,853	-0,176	-0,065
-178,256	208,766	0,029	-0,033
-177,242	102,503	-0,072	-0,061
-176,227	-71,793	0,087	0,024
-175,212	-200,000	0,016	0,074
-174,198	800,000	-0,045	0,116
-173,183	51,744	-0,133	-0,092
-172,169	323,492	-0,037	-0,052
-171,154	112,129	-0,070	0,062
-170,139	-200,000	0,000	-0,025
-169,125	-200,000	-0,026	0,147
-168,110	-136,529	-0,018	0,002
-167,096	-45,910	-0,034	-0,012
-166,081	-64,421	0,145	-0,043
-165,066	431,976	0,051	-0,080
-164,052	-62,579	-0,108	0,032
-163,037	-88,998	0,020	-0,004
-162,023	-200,000	-0,001	-0,052
-161,008	40,299	0,165	0,108
-159,993	800,000	-0,040	0,096
-158,979	41,020	0,127	0,084
-157,964	-200,000	0,017	0,121
-156,950	171,024	0,086	0,090
-155,935	-94,564	-0,097	0,019
-154,920	720,586	0,023	-0,044
-153,906	800,000	0,011	-0,030
-152,891	-150,323	0,190	-0,010
-151,877	-65,134	-0,102	0,030
-150,862	-23,275	0,029	-0,013
-149,847	-108,722	0,136	-0,021
-148,833	49,739	0,049	0,034
-147,818	-81,195	0,089	-0,021
-146,804	-40,546	0,031	0,012
-145,789	-76,995	0,035	-0,009
-144,775	-126,740	-0,155	0,017
-143,760	77,673	0,054	0,042
-142,745	-136,018	-0,079	-0,007
-141,731	-200,000	-0,000	-0,007
-140,716	116,497	-0,124	0,110
-139,702	-200,000	0,037	0,167
-138,687	-196,904	0,069	0,000
-137,672	102,431	-0,043	0,037
-136,658	-188,140	-0,239	-0,002
-135,643	149,381	0,034	-0,033
-134,629	800,000	0,047	0,102
-133,614	800,000	0,103	0,260
-132,599	192,690	-0,051	-0,056
-131,585	-200,000	0,003	-0,034
-130,570	-34,963	-0,107	-0,042
-129,556	-200,000	-0,015	0,085
-128,541	-200,000	0,013	-0,087
-127,526	-131,543	0,214	0,020
-126,512	800,000	0,023	0,056
-125,497	800,000	0,003	0,010
-124,483	-171,461	-0,064	-0,002
-123,468	-200,000	0,000	0,067
-122,453	598,466	0,044	-0,079
-121,439	-200,000	0,026	-0,168
-120,424	-99,697	0,091	0,016
-119,410	800,000	0,068	0,142
