DTS Sentinel unit serial number:	SN410029Multiplexer serial number:	ORYXHardware model number:	OX2-SRSoftware version number:	ORYX F/W v4,00 Oryx Data Collector v3.7.2.0data status	okinstallation	B6 Nyhavnadifferential loss correction	single-endedforward channel	channel 2reverse channel	N/Adate	2023/12/08time	08:30:08forward acquisition time	300,00reverse acquisition time	0,00gamma	499,1914k internal	0,3172k external	0,3172temperature offset calibration	1,0000default loss term (dB/km)	0,3820temperature slope calibration	1,0000multiplexer offset coefficient	1,0000multiplexer slope coefficient	1,0000fibre end	0,00T internal ref (°C)	11,67T ext. ref 1 (°C)	-2,38T ext. ref 2 (°C)	-2,34length (m)	temperature (°C)	Stokes	anti-Stokes-744,400	-37,267	0,215	0,084
-743,385	-121,634	-0,418	0,050
-742,371	140,516	0,069	-0,067
-741,356	-112,570	-0,415	0,060
-740,342	-200,000	0,027	0,175
-739,327	-72,966	-0,355	-0,095
-738,312	12,005	0,095	-0,053
-737,298	-156,650	-0,396	-0,018
-736,283	-44,959	0,118	-0,043
-735,269	-189,889	-0,459	0,004
-734,254	215,705	-0,006	-0,007
-733,239	10,170	-0,444	-0,247
-732,225	47,831	0,041	-0,028
-731,210	800,000	-0,036	-0,110
-730,196	800,000	0,034	-0,091
-729,181	71,912	0,060	0,046
-728,167	160,657	-0,060	-0,062
-727,152	-51,382	0,059	-0,020
-726,137	525,739	-0,032	-0,056
-725,123	367,151	-0,098	-0,146
-724,108	-61,051	-0,070	0,022
-723,094	-200,000	0,000	-0,036
-722,079	-129,216	-0,067	0,007
-721,064	-200,000	0,011	0,068
-720,050	-200,000	-0,017	-0,094
-719,035	56,714	0,073	-0,052
-718,021	-21,216	0,053	0,024
-717,006	-93,502	0,074	0,015
-715,991	-200,000	-0,026	-0,097
-714,977	-200,000	-0,009	-0,055
-713,962	235,465	0,021	0,025
-712,948	-100,027	-0,092	-0,017
-711,933	62,884	-0,099	0,072
-710,918	-113,128	-0,072	-0,010
-709,904	-10,609	-0,021	-0,010
-708,889	-75,434	-0,110	-0,029
-707,875	-200,000	-0,034	-0,185
-706,860	232,286	-0,092	-0,110
-705,845	-66,834	0,022	-0,006
-704,831	37,531	-0,102	0,066
-703,816	-171,423	-0,084	-0,002
-702,802	-200,000	-0,003	0,014
-701,787	-200,000	-0,002	-0,008
-700,772	-125,072	-0,050	-0,006
-699,758	800,000	0,029	-0,093
-698,743	303,592	0,059	-0,080
-697,729	-200,000	-0,018	0,119
-696,714	15,338	0,033	-0,019
-695,699	-200,000	-0,026	-0,090
-694,685	245,092	-0,030	-0,038
-693,670	282,687	-0,060	-0,080
-692,656	-0,675	-0,082	-0,042
-691,641	210,996	0,055	-0,064
-690,627	516,795	0,067	0,116
-689,612	-200,000	-0,027	-0,167
-688,597	-60,347	0,054	0,017
-687,583	-200,000	-0,036	-0,160
-686,568	-200,000	0,001	-0,069
-685,554	800,000	0,032	-0,090
-684,539	-148,015	0,110	-0,007
-683,524	57,526	-0,129	-0,092
-682,510	102,288	0,091	-0,078
-681,495	-9,292	-0,082	0,040
-680,481	52,469	0,146	0,102
-679,466	-200,000	0,035	-0,146
-678,451	-86,770	-0,089	0,020
-677,437	-200,000	-0,004	-0,081
-676,422	-168,528	0,044	0,001
-675,408	-27,297	0,084	-0,036
-674,393	112,918	-0,119	-0,106
-673,378	-200,000	-0,030	-0,145
-672,364	157,829	-0,016	-0,017
-671,349	-194,945	-0,106	0,001
-670,335	106,389	-0,066	0,057
-669,320	643,921	0,041	0,078
-668,305	-200,000	0,012	-0,142
-667,291	447,699	-0,042	0,068
-666,276	-11,579	0,044	-0,021
-665,262	147,113	0,048	-0,047
-664,247	135,396	0,034	0,033
-663,232	-71,968	-0,076	0,020
-662,218	645,711	0,046	0,087
-661,203	-56,339	0,109	0,035
-660,189	148,749	-0,094	0,093
-659,174	-200,000	0,021	-0,093
-658,159	105,498	-0,092	0,080
-657,145	-200,000	-0,001	-0,035
-656,130	-200,000	0,002	-0,099
-655,116	-51,821	0,149	-0,050
-654,101	-14,523	0,029	0,014
-653,086	800,000	0,007	-0,015
-652,072	-200,000	0,017	0,085
-651,057	800,000	-0,059	-0,125
-650,043	-176,101	0,133	0,003
-649,028	318,361	-0,052	-0,072
-648,014	472,114	0,063	0,105
-646,999	800,000	-0,031	0,088
-645,984	-66,771	0,135	-0,039
-644,970	800,000	-0,020	-0,043
-643,955	482,456	0,024	-0,041
-642,941	-10,203	-0,160	-0,077
-641,926	60,776	0,093	0,067
-640,911	-200,000	0,015	-0,076
-639,897	339,757	0,061	-0,088
-638,882	-110,195	-0,073	-0,011
-637,868	199,806	0,054	-0,061
-636,853	618,117	-0,033	0,060
-635,838	304,063	0,095	-0,129
-634,824	273,768	-0,048	0,062
-633,809	203,505	0,140	0,159
-632,795	358,717	0,048	0,071
-631,780	121,659	0,043	0,039
-630,765	-121,837	-0,115	0,014
-629,751	800,000	0,062	-0,130
-628,736	-200,000	0,013	-0,052
-627,722	-200,000	-0,005	-0,085
-626,707	-200,000	-0,052	0,168
-625,692	800,000	0,017	0,045
-624,678	-39,524	-0,127	0,048
-623,663	215,795	-0,027	0,031
-622,649	-200,000	0,016	-0,132
-621,634	-129,180	0,031	-0,003
-620,619	-18,174	-0,162	0,074
-619,605	-153,986	-0,045	0,002
-618,590	264,441	0,071	0,090
-617,576	292,072	-0,096	-0,128
-616,561	-115,607	-0,127	-0,017
-615,546	-200,000	0,015	-0,097
-614,532	-200,000	0,001	0,039
-613,517	-103,311	-0,128	-0,022
-612,503	-155,967	0,158	-0,007
-611,488	800,000	-0,044	0,106
-610,474	71,838	0,119	0,091
-609,459	-59,781	0,123	-0,038
-608,444	-200,000	-0,026	-0,110
-607,430	-51,228	-0,126	0,043
-606,415	-120,179	-0,079	-0,010
-605,401	130,347	0,119	0,112
-604,386	464,384	0,030	-0,050
-603,371	-200,000	0,015	0,108
-602,357	-34,970	-0,046	0,018
-601,342	239,014	-0,095	-0,116
-600,328	-200,000	-0,019	0,067
-599,313	285,685	-0,055	-0,072
-598,298	34,588	-0,104	0,066
-597,284	-88,493	0,102	-0,022
-596,269	157,493	-0,087	-0,088
-595,255	-200,000	-0,004	0,070
-594,240	-155,811	0,027	-0,001
-593,225	145,293	-0,068	0,066
-592,211	-200,000	-0,005	-0,072
-591,196	-60,990	0,028	-0,009
-590,182	-28,423	-0,114	-0,048
-589,167	-200,000	0,051	0,166
-588,152	121,427	-0,093	-0,084
-587,138	800,000	0,033	-0,086
-586,123	-21,921	-0,030	0,013
-585,109	72,023	-0,066	0,050
-584,094	-128,956	0,026	0,003
-583,079	-41,991	0,093	0,035
-582,065	-51,637	-0,067	-0,023
-581,050	-150,602	-0,054	0,003
-580,036	588,850	0,089	0,161
-579,021	800,000	0,042	-0,104
-578,006	202,652	0,011	0,013
-576,992	-35,177	0,083	-0,033
-575,977	43,037	0,125	0,083
-574,963	800,000	-0,029	0,064
-573,948	-200,000	-0,022	0,073
-572,934	-73,323	-0,094	-0,025
-571,919	-5,584	0,094	-0,047
-570,904	52,627	-0,035	0,024
-569,890	9,658	-0,068	0,037
-568,875	33,646	-0,039	0,025
-567,861	800,000	0,063	0,160
-566,846	-24,274	-0,088	-0,038
-565,831	-97,678	-0,062	-0,012
-564,817	38,800	0,179	-0,116
-563,802	-183,135	0,091	-0,001
-562,788	139,931	0,011	-0,010
-561,773	-118,774	-0,090	-0,011
-560,758	-29,800	0,042	-0,017
-559,744	385,836	0,086	-0,130
-558,729	-37,361	-0,052	0,020
-557,715	-200,000	-0,015	0,069
-556,700	-200,000	0,007	-0,093
-555,685	230,438	-0,102	-0,122
-554,671	800,000	0,039	-0,118
-553,656	-97,904	0,062	-0,012
-552,642	-149,113	-0,181	0,010
-551,627	800,000	-0,039	-0,085
-550,612	800,000	-0,046	-0,130
-549,598	800,000	-0,034	0,096
-548,583	129,349	0,027	0,025
-547,569	-7,254	0,081	-0,040
-546,554	204,585	0,060	0,068
-545,539	-200,000	-0,003	0,118
-544,525	149,668	-0,084	-0,083
-543,510	800,000	-0,040	0,102
-542,496	399,129	0,048	-0,073
-541,481	-200,000	0,020	-0,068
-540,466	-75,453	-0,005	-0,001
-539,452	-74,199	-0,126	0,033
-538,437	150,099	0,026	-0,026
-537,423	2,255	-0,112	-0,059
-536,408	-111,298	0,017	-0,002
-535,393	6,100	-0,054	0,029
-534,379	445,587	-0,075	0,121
-533,364	622,897	-0,073	-0,134
-532,350	402,122	-0,016	0,024
-531,335	543,882	0,014	0,025
-530,321	218,722	0,104	0,121
-529,306	2,544	-0,050	0,026
-528,291	-1,536	0,075	-0,038
-527,277	-2,819	-0,053	0,027
-526,262	-200,000	0,038	0,137
-525,248	417,468	0,097	0,151
-524,233	800,000	-0,033	0,095
-523,218	-200,000	-0,015	0,183
-522,204	51,361	0,112	0,077
-521,189	-200,000	-0,014	-0,105
-520,175	800,000	-0,048	0,115
-519,160	-14,284	-0,068	-0,032
-518,145	15,788	0,107	-0,061
-517,131	800,000	0,035	0,086
-516,116	-3,650	0,082	-0,041
-515,102	-89,718	0,090	-0,019
-514,087	-30,520	-0,086	0,035
-513,072	-200,000	-0,011	-0,066
-512,058	-47,174	0,156	-0,055
-511,043	458,859	0,055	0,089
-510,029	93,056	-0,165	-0,136
-509,014	262,841	-0,017	-0,021
-507,999	-200,000	-0,044	-0,147
-506,985	-48,361	-0,069	-0,024
-505,970	216,999	-0,056	-0,065
-504,956	428,909	-0,104	-0,165
-503,941	-55,182	0,058	-0,019
-502,926	-200,000	0,024	-0,092
-501,912	800,000	-0,044	-0,092
-500,897	-200,000	-0,011	0,064
-499,883	128,556	0,039	-0,036
-498,868	-157,373	-0,102	-0,004
-497,853	-200,000	0,002	-0,028
-496,839	21,691	0,091	-0,054
-495,824	395,184	-0,065	0,099
-494,810	-128,304	0,101	-0,010
-493,795	-35,241	0,044	0,017
-492,781	-32,944	-0,084	-0,034
-491,766	-200,000	0,032	-0,156
-490,751	239,931	0,053	-0,065
-489,737	-200,000	-0,001	-0,042
-488,722	-34,079	0,060	0,024
-487,708	759,521	-0,042	-0,083
-486,693	800,000	-0,027	-0,069
-485,678	177,907	0,126	0,133
-484,664	-200,000	-0,015	-0,051
-483,649	718,867	-0,062	0,120
-482,635	378,876	-0,035	-0,052
-481,620	-42,387	0,121	-0,044
-480,605	-24,719	0,082	0,035
-479,591	-2,794	-0,070	-0,035
-478,576	-200,000	0,006	-0,097
-477,562	-200,000	-0,022	-0,204
-476,547	-9,173	0,059	0,029
-475,532	800,000	0,016	-0,051
-474,518	-90,943	0,053	0,011
-473,503	-82,103	0,101	0,024
-472,489	-152,940	0,157	0,008
-471,474	-48,409	-0,160	-0,056
-470,459	256,943	-0,092	-0,115
-469,445	-200,000	-0,008	-0,070
-468,430	-200,000	0,024	-0,082
-467,416	-200,000	0,025	0,101
-466,401	446,753	-0,053	0,085
-465,386	-200,000	-0,004	-0,068
-464,372	-200,000	-0,019	-0,115
-463,357	138,450	-0,079	0,075
-462,343	-200,000	-0,017	-0,084
-461,328	-59,569	-0,046	-0,014
-460,313	-200,000	0,002	-0,046
-459,299	-1,097	0,009	-0,005
-458,284	148,254	0,153	0,150
-457,270	-200,000	-0,016	0,121
-456,255	-64,085	0,074	0,022
-455,241	-200,000	-0,039	-0,142
-454,226	-159,732	0,067	0,003
-453,211	-200,000	-0,003	0,067
-452,197	-157,644	0,189	0,008
-451,182	-199,135	0,093	0,000
-450,168	800,000	-0,015	-0,036
-449,153	-200,000	0,017	0,095
-448,138	2,724	-0,150	-0,079
-447,124	265,952	0,071	-0,090
-446,109	145,380	0,118	0,115
-445,095	-200,000	0,042	0,183
-444,080	14,893	0,141	0,080
-443,065	-200,000	0,009	-0,131
-442,051	-200,000	-0,015	-0,066
-441,036	-200,000	0,019	0,157
-440,022	-200,000	-0,008	-0,068
-439,007	-161,449	-0,133	0,005
-437,992	72,017	-0,034	0,025
-436,978	800,000	0,058	-0,154
-435,963	158,007	0,092	0,093
-434,949	-101,856	-0,082	0,014
-433,934	48,165	-0,135	-0,091
-432,919	-61,809	-0,189	-0,057
-431,905	-200,000	0,006	-0,022
-430,890	16,608	0,101	0,058
-429,876	-200,000	0,003	-0,108
-428,861	-115,562	0,085	-0,011
-427,846	138,254	-0,023	0,022
-426,832	-200,000	0,004	-0,021
-425,817	181,620	-0,030	-0,032
-424,803	-200,000	0,012	0,112
-423,788	-96,606	0,061	-0,012
-422,773	-200,000	0,010	0,040
-421,759	97,869	-0,018	0,015
-420,744	-73,763	0,091	0,024
-419,730	472,372	-0,054	0,089
-418,715	-200,000	0,010	0,047
-417,701	-200,000	0,014	-0,059
-416,686	264,862	0,015	0,019
-415,671	-125,991	0,050	-0,005
-414,657	-17,675	-0,056	0,025
-413,642	-200,000	0,003	0,049
-412,628	-25,138	-0,150	0,064
-411,613	-134,605	-0,125	-0,011
-410,598	-200,000	0,006	-0,059
-409,584	-200,000	0,097	0,000
-408,569	31,599	0,023	0,014
-407,555	-200,000	-0,026	-0,098
-406,540	-30,742	-0,066	0,027
-405,525	-81,777	-0,074	0,017
-404,511	-19,217	-0,111	-0,050
-403,496	-56,016	-0,163	-0,052
-402,482	-10,613	-0,077	0,037
-401,467	70,499	0,090	0,067
-400,452	-129,306	0,044	-0,004
-399,438	-18,730	0,190	0,085
-398,423	-50,665	-0,091	-0,031
-397,409	800,000	-0,023	-0,064
-396,394	246,757	-0,030	-0,036
-395,379	-97,411	0,096	-0,018
-394,365	43,881	0,073	0,048
-393,350	37,183	0,068	-0,043
-392,336	726,440	0,028	0,055
-391,321	-25,077	0,012	0,005
-390,306	800,000	-0,018	-0,053
-389,292	172,657	0,059	-0,061
-388,277	800,000	0,030	-0,066
-387,263	-200,000	0,005	0,044
-386,248	800,000	0,036	0,115
-385,233	-200,000	-0,016	-0,069
-384,219	-131,090	-0,107	-0,010
-383,204	-119,655	0,091	-0,011
-382,190	-200,000	0,005	-0,103
-381,175	143,427	-0,037	-0,035
-380,160	641,107	-0,083	-0,154
-379,146	-200,000	0,008	0,064
-378,131	800,000	0,044	0,127
-377,117	19,423	-0,131	0,076
-376,102	-66,180	0,064	0,018
-375,088	82,889	-0,016	-0,012
-374,073	-116,438	-0,143	-0,019
-373,058	-23,015	0,148	-0,064
-372,044	228,410	-0,102	0,121
-371,029	-39,885	0,060	-0,023
-370,015	117,239	-0,033	-0,029
-369,000	471,061	0,051	0,084
-367,985	-87,278	-0,145	-0,032
-366,971	-115,557	0,071	0,010
-365,956	800,000	0,055	0,132
-364,942	-84,349	-0,099	-0,022
-363,927	-200,000	0,002	-0,070
-362,912	-200,000	-0,002	-0,070
-361,898	67,202	0,092	-0,068
-360,883	800,000	0,010	0,024
-359,869	48,938	0,108	-0,073
-358,854	-68,763	0,087	-0,024
-357,839	363,698	0,095	0,138
-356,825	-127,715	-0,034	0,003
-355,810	800,000	0,029	0,065
-354,796	-84,408	-0,035	-0,008
-353,781	-11,313	-0,042	-0,020
-352,766	-200,000	-0,031	-0,100
-351,752	-106,431	-0,063	-0,010
-350,737	-200,000	0,028	-0,188
-349,723	800,000	-0,009	-0,024
-348,708	-200,000	0,006	0,030
-347,693	-117,226	-0,071	0,009
-346,679	-42,840	-0,028	-0,010
-345,664	-52,412	0,031	0,010
-344,650	-200,000	0,002	-0,017
-343,635	179,986	-0,071	0,076
-342,620	-46,652	0,061	0,022
-341,606	-52,962	0,048	0,016
-340,591	-200,000	-0,021	-0,109
-339,577	345,779	0,090	-0,128
-338,562	-155,942	0,056	0,003
-337,548	56,917	-0,029	-0,020
-336,533	-12,987	-0,022	0,010
-335,518	56,535	0,038	0,026
-334,504	-38,368	0,122	-0,046
-333,489	-35,003	0,070	0,027
-332,475	800,000	0,033	-0,098
-331,460	88,237	0,061	-0,049
-330,445	-200,000	0,018	-0,070
-329,431	800,000	0,033	0,068
-328,416	388,898	0,043	0,065
-327,402	-108,156	-0,115	0,018
-326,387	748,488	0,069	0,135
-325,372	-200,000	-0,021	-0,103
-324,358	276,622	-0,082	-0,106
-323,343	800,000	-0,019	-0,059
-322,329	-10,699	0,032	0,015
-321,314	193,466	0,080	0,088
-320,299	-200,000	0,016	0,134
-319,285	-104,415	-0,045	-0,007
-318,270	800,000	0,040	-0,084
-317,256	337,142	-0,032	0,045
-316,241	510,474	-0,028	-0,047
-315,226	-200,000	-0,004	0,040
-314,212	192,226	0,092	0,101
-313,197	518,362	0,093	0,158
-312,183	106,432	-0,087	-0,074
-311,168	-200,000	0,018	-0,115
-310,153	-165,263	0,112	0,003
-309,139	-21,441	-0,108	-0,047
-308,124	-200,000	0,000	0,093
-307,110	-200,000	0,014	0,137
-306,095	-200,000	0,009	0,106
-305,080	206,865	0,063	-0,071
-304,066	505,621	0,029	0,048
-303,051	605,043	-0,101	-0,182
-302,037	-87,924	-0,058	-0,012
-301,022	-200,000	0,006	-0,042
-300,008	509,251	-0,047	0,079
-298,993	-200,000	-0,037	0,170
-297,978	40,084	0,026	0,017
-296,964	-61,112	-0,089	0,027
-295,949	800,000	0,052	0,114
-294,935	155,755	-0,043	0,043
-293,920	-157,465	-0,027	-0,001
-292,905	133,363	-0,058	0,054
-291,891	-200,000	0,027	0,143
-290,876	57,750	0,093	-0,065
-289,862	-131,860	-0,150	0,014
-288,847	42,155	-0,052	-0,034
-287,832	-200,000	-0,061	-0,194
-286,818	9,321	-0,075	0,041
-285,803	-59,149	0,164	0,051
-284,789	-64,013	0,067	0,020
-283,774	-1,387	0,038	-0,020
-282,759	800,000	0,030	0,067
-281,745	-200,000	0,007	0,036
-280,730	-59,848	0,129	-0,040
-279,716	-70,534	0,148	0,040
-278,701	800,000	0,038	0,084
-277,686	492,603	0,030	-0,050
-276,672	-126,370	0,108	-0,011
-275,657	-28,771	-0,004	0,002
-274,643	549,492	-0,055	-0,095
-273,628	-125,230	-0,033	-0,004
-272,613	-115,054	-0,083	0,011
-271,599	-48,852	0,129	0,044
-270,584	-67,884	-0,045	0,013
-269,570	522,701	0,040	0,068
-268,555	55,864	-0,079	0,055
-267,540	142,799	-0,014	0,013
-266,526	-200,000	-0,021	-0,112
-265,511	-126,050	-0,113	-0,012
-264,497	270,720	-0,027	0,035
-263,482	-200,000	0,002	0,022
-262,467	159,937	0,103	-0,103
-261,453	344,951	-0,016	-0,023
-260,438	-116,877	-0,095	0,012
-259,424	228,035	-0,032	-0,038
-258,409	-91,116	0,089	-0,018
-257,395	-200,000	0,029	0,183
-256,380	-200,000	0,028	0,125
-255,365	-155,826	0,035	-0,002
-254,351	81,774	-0,069	0,054
-253,336	-106,119	-0,063	-0,010
-252,322	-200,000	-0,040	-0,184
-251,307	-200,000	-0,030	-0,098
-250,292	-200,000	0,021	0,110
-249,278	-133,989	-0,150	0,013
-248,263	-181,635	0,169	0,002
-247,249	800,000	-0,013	0,042
-246,234	800,000	0,042	0,108
-245,219	-70,611	-0,066	-0,018
-244,205	800,000	-0,014	0,041
-243,190	237,545	-0,050	-0,060
-242,176	62,056	0,057	0,041
-241,161	129,178	0,089	0,082
-240,146	5,058	0,052	0,027
-239,132	29,040	0,058	-0,036
-238,117	-171,968	-0,181	0,004
-237,103	-200,000	0,015	-0,135
-236,088	249,830	0,066	0,081
-235,073	65,000	0,011	-0,008
-234,059	-3,301	-0,126	0,063
-233,044	238,604	-0,077	0,093
-232,030	360,438	-0,008	0,011
-231,015	46,744	-0,032	0,021
-230,000	-46,307	0,046	-0,016
-228,986	-200,000	-0,005	-0,039
-227,971	-200,000	-0,029	0,246
-226,957	243,091	0,050	0,060
-225,942	257,145	-0,079	0,098
-224,927	253,231	0,102	0,125
-223,913	-200,000	0,014	0,063
-222,898	800,000	0,026	0,057
-221,884	-59,418	0,010	-0,003
-220,869	-103,395	0,060	-0,010
-219,855	-200,000	0,022	0,085
-218,840	-200,000	-0,041	0,210
-217,825	-103,870	0,055	0,009
-216,811	800,000	0,035	-0,105
-215,796	103,377	-0,080	-0,068
-214,782	717,525	0,008	0,015
-213,767	-13,744	0,115	-0,053
-212,752	90,756	0,039	-0,031
-211,738	-200,000	0,021	0,070
-210,723	-112,607	0,072	0,010
-209,709	-155,272	-0,112	-0,005
-208,694	800,000	0,030	-0,084
-207,679	-86,043	0,063	-0,014
-206,665	124,853	0,042	0,038
-205,650	78,534	0,085	-0,066
-204,636	410,709	0,035	0,054
-203,621	-77,242	-0,129	0,032
-202,606	45,390	-0,115	-0,076
-201,592	58,339	0,030	-0,021
-200,577	800,000	-0,037	0,074
-199,563	-96,971	0,084	0,016
-198,548	88,569	-0,074	0,059
-197,533	171,551	0,036	0,037
-196,519	660,832	-0,078	0,145
-195,504	17,659	-0,054	0,031
-194,490	-200,000	-0,021	-0,153
-193,475	-186,399	-0,062	-0,001
-192,460	22,953	-0,016	-0,010
-191,446	299,783	0,048	0,063
-190,431	-200,000	-0,027	-0,101
-189,417	-168,682	-0,076	-0,002
-188,402	474,038	0,041	-0,066
-187,387	800,000	-0,044	-0,111
-186,373	230,396	-0,080	0,094
-185,358	7,636	0,098	-0,052
-184,344	-200,000	0,029	-0,169
-183,329	-143,511	0,108	-0,007
-182,315	708,779	0,079	0,151
-181,300	268,252	-0,019	-0,024
-180,285	108,608	-0,026	-0,022
-179,271	-200,000	-0,019	-0,100
-178,256	-83,669	0,026	-0,006
-177,242	800,000	0,037	-0,079
-176,227	-200,000	0,003	-0,022
-175,212	-200,000	0,002	-0,035
-174,198	-38,205	-0,095	-0,036
-173,183	27,987	-0,103	-0,062
-172,169	61,256	-0,059	-0,042
-171,154	80,495	0,044	-0,034
-170,139	39,681	0,074	-0,047
-169,125	-200,000	-0,003	-0,015
-168,110	520,748	-0,033	0,055
-167,096	-200,000	-0,047	0,154
-166,081	800,000	0,028	0,067
-165,066	-89,324	-0,090	-0,019
-164,052	73,986	-0,089	-0,067
-163,037	-79,330	0,093	0,022
-162,023	601,659	-0,013	0,022
-161,008	-6,991	-0,142	-0,069
-159,993	-22,898	0,064	0,028
-158,979	215,762	-0,043	0,049
-157,964	-163,293	-0,129	0,004
-156,950	-200,000	-0,032	-0,178
-155,935	256,855	-0,024	-0,030
-154,920	65,793	0,073	-0,053
-153,906	800,000	0,039	0,097
-152,891	-70,500	-0,063	0,017
-151,877	-19,870	-0,074	0,033
-150,862	800,000	0,078	-0,190
-149,847	800,000	0,066	-0,132
-148,833	544,911	-0,011	0,019
-147,818	161,269	0,099	0,100
-146,804	-173,742	-0,143	-0,003
-145,789	-81,052	0,105	-0,025
-144,775	91,488	-0,034	0,028
-143,760	67,545	-0,061	0,045
-142,745	321,118	-0,039	-0,054
-141,731	29,019	-0,028	-0,017
-140,716	22,175	0,162	-0,095
-139,702	-75,274	-0,147	-0,037
-138,687	218,671	0,086	0,099
-137,672	-95,533	-0,154	0,029
-136,658	-200,000	0,037	-0,150
-135,643	-200,000	-0,046	-0,212
-134,629	-13,011	0,064	-0,030
-133,614	130,044	0,081	-0,074
-132,599	-180,964	0,098	-0,001
-131,585	-68,617	0,202	0,056
-130,570	-84,852	-0,073	-0,016
-129,556	51,617	-0,088	-0,060
-128,541	93,922	-0,118	0,096
-127,526	83,256	0,059	-0,046
-126,512	21,053	-0,024	-0,014
-125,497	-200,000	0,019	0,172
-124,483	800,000	0,048	0,134
-123,468	243,367	-0,072	-0,086
-122,453	415,713	-0,052	0,079
-121,439	-17,573	-0,049	0,022
-120,424	54,105	-0,081	-0,056
