DTS Sentinel unit serial number:	SN410029Multiplexer serial number:	ORYXHardware model number:	OX2-SRSoftware version number:	ORYX F/W v4,00 Oryx Data Collector v3.7.2.0data status	okinstallation	B6 Nyhavnadifferential loss correction	single-endedforward channel	channel 2reverse channel	N/Adate	2023/12/09time	11:55:08forward acquisition time	300,00reverse acquisition time	0,00gamma	499,1914k internal	0,3140k external	0,3140temperature offset calibration	1,0000default loss term (dB/km)	0,3820temperature slope calibration	1,0000multiplexer offset coefficient	1,0000multiplexer slope coefficient	1,0000fibre end	0,00T internal ref (°C)	19,06T ext. ref 1 (°C)	3,24T ext. ref 2 (°C)	3,22length (m)	temperature (°C)	Stokes	anti-Stokes-744,400	143,183	0,068	-0,067
-743,385	-134,819	-0,119	0,011
-742,371	800,000	0,012	-0,026
-741,356	-136,606	-0,301	0,025
-740,342	-88,567	0,158	-0,035
-739,327	-30,732	-0,137	0,057
-738,312	-51,932	-0,091	-0,031
-737,298	6,890	-0,214	0,118
-736,283	-106,734	0,091	0,015
-735,269	113,782	-0,239	0,215
-734,254	191,890	0,101	0,113
-733,239	51,432	-0,385	-0,271
-732,225	-30,303	0,085	-0,036
-731,210	392,430	-0,043	0,066
-730,196	-90,719	0,065	0,014
-729,181	-66,734	-0,160	-0,047
-728,167	38,905	-0,088	-0,058
-727,152	219,688	0,023	-0,027
-726,137	-200,000	-0,002	0,104
-725,123	258,634	-0,019	-0,024
-724,108	-121,424	-0,018	0,002
-723,094	362,973	-0,059	-0,087
-722,079	-200,000	-0,013	-0,084
-721,064	203,698	-0,054	0,062
-720,050	-46,893	0,108	0,039
-719,035	-3,442	0,053	-0,027
-718,021	-200,000	-0,032	-0,121
-717,006	800,000	0,034	-0,087
-715,991	-174,821	-0,149	0,003
-714,977	-35,703	-0,049	0,020
-713,962	-200,000	0,006	-0,028
-712,948	800,000	0,008	0,023
-711,933	220,629	0,100	0,118
-710,918	288,280	0,037	0,049
-709,904	30,201	-0,057	0,036
-708,889	-65,733	-0,084	-0,025
-707,875	-111,845	-0,078	-0,012
-706,860	-4,133	-0,079	0,041
-705,845	-78,358	0,057	0,014
-704,831	-11,980	0,031	-0,015
-703,816	315,401	-0,013	0,019
-702,802	-200,000	-0,019	-0,080
-701,787	690,997	0,021	0,040
-700,772	-200,000	0,035	-0,171
-699,758	800,000	-0,053	-0,153
-698,743	294,000	0,055	-0,074
-697,729	-200,000	-0,010	0,134
-696,714	270,727	-0,016	-0,021
-695,699	205,006	-0,048	-0,055
-694,685	-156,358	-0,067	0,003
-693,670	437,976	-0,066	-0,108
-692,656	734,239	-0,050	0,099
-691,641	117,159	-0,106	-0,097
-690,627	-200,000	-0,009	0,033
-689,612	-200,000	0,010	-0,057
-688,597	19,380	-0,142	-0,084
-687,583	505,112	-0,068	-0,117
-686,568	20,714	-0,099	-0,059
-685,554	170,858	-0,065	-0,069
-684,539	800,000	0,054	-0,158
-683,524	800,000	-0,056	0,122
-682,510	-181,797	-0,046	-0,001
-681,495	141,129	-0,041	-0,040
-680,481	-154,307	-0,051	-0,002
-679,466	178,608	-0,107	-0,116
-678,451	800,000	0,047	0,132
-677,437	133,036	0,025	-0,024
-676,422	-200,000	0,015	0,073
-675,408	452,093	0,063	0,104
-674,393	-200,000	0,011	-0,043
-673,378	59,105	-0,149	-0,108
-672,364	20,512	0,070	-0,042
-671,349	-200,000	-0,001	-0,160
-670,335	-47,558	-0,067	-0,024
-669,320	60,522	0,021	0,016
-668,305	-200,000	0,005	0,120
-667,291	800,000	-0,024	-0,052
-666,276	-182,985	-0,059	0,001
-665,262	9,293	-0,150	-0,084
-664,247	800,000	-0,020	-0,062
-663,232	-200,000	-0,011	-0,074
-662,218	-200,000	0,009	-0,047
-661,203	-200,000	-0,035	-0,183
-660,189	-24,376	-0,160	-0,070
-659,174	61,065	0,053	0,039
-658,159	28,960	-0,145	-0,090
-657,145	-200,000	0,013	-0,046
-656,130	-122,382	0,047	0,006
-655,116	41,797	-0,061	0,041
-654,101	-85,392	0,038	0,009
-653,086	82,693	0,071	-0,057
-652,072	-162,525	-0,193	0,007
-651,057	-200,000	0,007	-0,035
-650,043	1,732	-0,154	0,082
-649,028	5,809	-0,210	-0,115
-648,014	-116,825	0,127	0,017
-646,999	-200,000	0,012	0,106
-645,984	-200,000	-0,004	-0,121
-644,970	800,000	-0,036	-0,098
-643,955	408,694	-0,053	-0,083
-642,941	-200,000	-0,018	-0,075
-641,926	-0,842	-0,069	-0,036
-640,911	371,168	0,013	-0,020
-639,897	-200,000	-0,011	-0,088
-638,882	-43,870	-0,092	-0,034
-637,868	27,805	0,058	-0,036
-636,853	-162,469	-0,109	0,004
-635,838	367,691	-0,043	-0,064
-634,824	465,069	-0,029	-0,048
-633,809	11,407	-0,043	0,024
-632,795	800,000	0,027	-0,070
-631,780	153,746	-0,020	-0,020
-630,765	51,460	-0,077	-0,054
-629,751	-40,625	-0,114	-0,043
-628,736	-200,000	-0,041	-0,138
-627,722	465,295	0,052	-0,087
-626,707	199,121	0,066	-0,075
-625,692	-98,655	-0,041	0,008
-624,678	-200,000	0,002	0,115
-623,663	-200,000	0,028	-0,109
-622,649	-64,547	0,047	0,014
-621,634	12,139	-0,058	-0,033
-620,619	800,000	0,025	0,058
-619,605	800,000	-0,036	0,101
-618,590	-200,000	0,048	0,191
-617,576	94,443	0,066	0,055
-616,561	-65,727	-0,042	-0,012
-615,546	-200,000	-0,020	-0,129
-614,532	-200,000	0,011	-0,058
-613,517	86,362	0,104	-0,084
-612,503	43,981	-0,072	0,048
-611,488	-61,796	0,047	-0,014
-610,474	658,843	0,036	0,068
-609,459	-61,907	0,188	0,058
-608,444	-200,000	0,015	-0,067
-607,430	38,571	0,077	0,050
-606,415	32,522	-0,096	-0,061
-605,401	-128,877	0,052	0,005
-604,386	-131,647	-0,042	0,004
-603,371	-9,453	0,052	0,025
-602,357	-90,455	0,081	-0,017
-601,342	-200,000	-0,008	0,106
-600,328	-19,990	-0,065	-0,029
-599,313	383,774	-0,066	-0,101
-598,298	-116,992	-0,090	-0,012
-597,284	-200,000	-0,015	-0,209
-596,269	49,541	-0,060	-0,041
-595,255	87,124	-0,060	-0,049
-594,240	-98,601	-0,064	0,012
-593,225	-33,810	-0,045	0,018
-592,211	-200,000	-0,006	0,020
-591,196	-188,746	-0,210	0,002
-590,182	3,560	0,053	0,028
-589,167	105,399	-0,114	0,099
-588,152	-200,000	-0,026	0,086
-587,138	342,715	-0,071	-0,103
-586,123	-69,064	-0,119	0,033
-585,109	188,239	0,059	-0,066
-584,094	-50,620	-0,074	0,025
-583,079	800,000	-0,041	-0,108
-582,065	800,000	0,021	-0,044
-581,050	500,355	0,034	0,058
-580,036	-112,356	-0,058	-0,008
-579,021	326,245	0,072	-0,102
-578,006	115,319	-0,057	0,051
-576,992	-183,521	-0,096	0,001
-575,977	85,790	0,161	-0,130
-574,963	83,035	-0,066	0,053
-573,948	-39,389	0,071	0,027
-572,934	276,284	-0,049	0,064
-571,919	-102,537	-0,111	-0,019
-570,904	-11,502	0,109	0,053
-569,890	800,000	0,018	-0,043
-568,875	-200,000	-0,003	-0,074
-567,861	-99,469	0,094	0,017
-566,846	236,107	0,067	0,082
-565,831	-145,069	-0,026	-0,002
-564,817	702,036	-0,030	0,058
-563,802	386,987	-0,033	-0,050
-562,788	345,547	-0,042	0,060
-561,773	800,000	-0,018	-0,041
-560,758	9,956	0,158	0,088
-559,744	-200,000	0,020	-0,085
-558,729	13,999	-0,213	0,122
-557,715	-200,000	-0,025	0,082
-556,700	35,386	-0,091	0,059
-555,685	33,151	-0,104	-0,067
-554,671	635,446	-0,042	0,079
-553,656	75,828	-0,046	-0,036
-552,642	-96,383	0,113	0,022
-551,627	-170,817	0,082	-0,002
-550,612	151,968	-0,058	-0,058
-549,598	-59,603	-0,079	-0,025
-548,583	-197,936	-0,077	0,000
-547,569	-200,000	0,003	-0,106
-546,554	416,752	0,049	-0,077
-545,539	30,461	0,140	0,088
-544,525	-200,000	0,005	-0,042
-543,510	-94,794	-0,053	-0,010
-542,496	666,387	0,010	0,020
-541,481	156,463	-0,092	-0,094
-540,466	-200,000	0,028	-0,164
-539,452	-116,463	0,125	-0,017
-538,437	775,198	0,039	0,080
-537,423	1,395	0,073	-0,039
-536,408	-200,000	0,001	0,023
-535,393	267,067	-0,056	-0,072
-534,379	-167,386	0,038	0,001
-533,364	-89,253	-0,055	-0,012
-532,350	355,500	0,058	0,086
-531,335	-200,000	-0,002	0,124
-530,321	57,414	-0,022	0,016
-529,306	-102,160	-0,068	-0,012
-528,291	318,000	-0,113	0,158
-527,277	-13,970	-0,082	0,039
-526,262	-200,000	0,003	-0,060
-525,248	-16,793	-0,035	0,016
-524,233	800,000	0,003	0,008
-523,218	-194,174	-0,094	0,001
-522,204	137,147	-0,052	-0,050
-521,189	100,524	-0,152	-0,130
-520,175	800,000	-0,023	-0,075
-519,160	224,794	0,085	-0,102
-518,145	-200,000	0,002	0,015
-517,131	-78,037	0,055	-0,014
-516,116	99,216	0,053	-0,045
-515,102	303,681	-0,061	0,083
-514,087	68,839	-0,034	-0,026
-513,072	-108,723	-0,074	-0,012
-512,058	-2,657	0,102	-0,052
-511,043	-96,793	0,104	-0,020
-510,029	800,000	-0,066	0,135
-509,014	800,000	-0,025	0,079
-507,999	336,720	-0,073	0,104
-506,985	57,570	0,073	-0,053
-505,970	-82,841	-0,065	-0,015
-504,956	800,000	-0,032	-0,099
-503,941	-147,793	-0,055	-0,003
-502,926	-89,606	0,075	-0,016
-501,912	169,396	0,095	0,100
-500,897	-200,000	-0,049	0,196
-499,883	92,338	0,142	-0,118
-498,868	-200,000	-0,006	-0,051
-497,853	800,000	0,022	0,048
-496,839	1,217	-0,067	-0,035
-495,824	211,593	-0,023	0,026
-494,810	-200,000	0,019	0,130
-493,795	-200,000	0,001	0,007
-492,781	-84,500	0,085	-0,020
-491,766	800,000	0,016	-0,044
-490,751	-135,105	-0,034	0,003
-489,737	800,000	-0,036	0,107
-488,722	115,667	0,144	0,129
-487,708	520,138	-0,061	0,105
-486,693	114,120	0,095	0,085
-485,678	360,878	0,048	-0,070
-484,664	33,296	-0,068	-0,043
-483,649	-114,357	0,039	-0,005
-482,635	-28,313	-0,052	-0,022
-481,620	-114,663	0,218	-0,030
-480,605	-36,887	0,125	0,049
-479,591	51,224	-0,104	0,072
-478,576	-49,945	-0,021	0,007
-477,562	113,086	-0,075	0,067
-476,547	-200,000	-0,005	-0,091
-475,532	412,880	-0,050	0,078
-474,518	135,181	-0,033	-0,032
-473,503	-200,000	0,017	0,144
-472,489	-200,000	-0,011	0,123
-471,474	-136,747	-0,116	-0,010
-470,459	20,152	0,075	-0,044
-469,445	2,893	-0,124	-0,066
-468,430	-32,508	-0,086	0,035
-467,416	-200,000	0,057	0,256
-466,401	121,819	0,037	0,034
-465,386	52,450	0,056	0,039
-464,372	-1,378	0,087	-0,045
-463,357	-200,000	-0,017	-0,080
-462,343	-16,225	-0,126	-0,059
-461,328	42,249	0,044	-0,029
-460,313	6,498	-0,084	0,046
-459,299	45,936	0,029	0,019
-458,284	557,545	0,064	-0,114
-457,270	97,653	-0,085	-0,072
-456,255	168,890	-0,047	0,049
-455,241	-200,000	-0,009	-0,068
-454,226	-200,000	-0,057	-0,258
-453,211	60,994	-0,080	-0,058
-452,197	39,683	-0,054	0,036
-451,182	230,144	-0,034	-0,040
-450,168	-37,114	0,022	-0,009
-449,153	402,203	-0,044	-0,068
-448,138	746,259	-0,025	0,049
-447,124	-34,576	-0,033	0,013
-446,109	274,689	0,055	0,071
-445,095	-104,997	0,210	0,035
-444,080	800,000	-0,015	-0,045
-443,065	-115,611	0,087	0,012
-442,051	-181,032	-0,151	0,002
-441,036	643,896	-0,057	-0,106
-440,022	-200,000	-0,003	-0,196
-439,007	-146,177	0,039	0,002
-437,992	483,085	-0,038	0,064
-436,978	137,596	0,100	-0,096
-435,963	800,000	-0,004	0,012
-434,949	-57,369	0,058	-0,019
-433,934	217,141	0,041	0,048
-432,919	-136,631	-0,050	0,004
-431,905	-41,584	0,101	-0,038
-430,890	140,080	-0,054	-0,052
-429,876	159,048	-0,081	0,082
-428,861	30,553	-0,192	-0,120
-427,846	-23,091	0,030	-0,013
-426,832	-66,439	-0,099	0,029
-425,817	-119,191	-0,043	-0,005
-424,803	-200,000	0,039	0,212
-423,788	-200,000	-0,025	-0,116
-422,773	196,834	0,029	-0,032
-421,759	-72,221	0,026	-0,007
-420,744	-130,330	0,135	-0,013
-419,730	-200,000	-0,021	0,121
-418,715	800,000	-0,039	-0,108
-417,701	144,385	0,045	-0,044
-416,686	-18,511	0,127	-0,058
-415,671	-174,517	0,190	0,004
-414,657	501,969	-0,029	-0,049
-413,642	800,000	-0,016	-0,049
-412,628	-88,059	-0,010	0,002
-411,613	-200,000	0,046	-0,180
-410,598	800,000	0,041	0,089
-409,584	755,150	0,040	-0,080
-408,569	41,878	0,121	-0,080
-407,555	-98,050	-0,058	-0,011
-406,540	75,629	0,109	-0,084
-405,525	-93,244	-0,036	-0,007
-404,511	-53,528	0,012	0,004
-403,496	-200,000	-0,020	-0,097
-402,482	800,000	-0,016	0,047
-401,467	303,527	-0,012	0,016
-400,452	-85,566	0,068	-0,015
-399,438	-200,000	0,033	-0,151
-398,423	800,000	-0,076	-0,179
-397,409	800,000	-0,080	-0,180
-396,394	-171,325	0,099	0,002
-395,379	-122,519	0,064	-0,008
-394,365	-200,000	-0,011	0,083
-393,350	141,256	-0,067	0,065
-392,336	93,534	-0,025	0,021
-391,321	-58,591	-0,082	-0,026
-390,306	-40,285	-0,056	-0,021
-389,292	-200,000	0,020	0,073
-388,277	117,144	0,082	0,074
-387,263	14,890	0,069	0,039
-386,248	-200,000	0,004	0,056
-385,233	800,000	-0,060	0,149
-384,219	55,895	0,136	-0,096
-383,204	768,250	0,019	-0,038
-382,190	-28,181	0,040	0,017
-381,175	123,363	0,031	0,028
-380,160	800,000	-0,050	0,135
-379,146	84,008	0,056	0,044
-378,131	-200,000	-0,026	0,119
-377,117	281,501	-0,086	0,113
-376,102	-200,000	0,029	0,148
-375,088	0,519	-0,052	-0,027
-374,073	-200,000	-0,005	0,030
-373,058	-200,000	0,019	0,117
-372,044	-34,227	0,103	-0,041
-371,029	713,304	0,059	0,115
-370,015	-88,051	0,036	-0,008
-369,000	800,000	0,060	-0,165
-367,985	800,000	-0,033	-0,078
-366,971	25,900	0,071	-0,043
-365,956	398,945	-0,066	-0,102
-364,942	109,022	0,101	0,088
-363,927	247,010	0,023	0,029
-362,912	-91,305	0,103	0,021
-361,898	777,643	0,042	-0,085
-360,883	138,312	0,053	-0,051
-359,869	338,278	-0,072	-0,102
-358,854	-54,753	0,144	-0,047
-357,839	208,247	-0,129	0,148
-356,825	613,014	-0,042	0,077
-355,810	339,278	0,059	0,084
-354,796	-96,823	-0,066	-0,013
-353,781	62,143	0,054	-0,040
-352,766	695,014	-0,027	0,052
-351,752	-96,283	-0,097	0,019
-350,737	279,734	0,057	0,075
-349,723	-200,000	0,002	-0,023
-348,708	-200,000	0,018	-0,079
-347,693	173,148	-0,104	0,109
-346,679	-111,174	0,028	-0,004
-345,664	800,000	0,034	0,073
-344,650	-77,982	-0,056	0,014
-343,635	66,468	0,031	-0,023
-342,620	778,087	-0,005	0,009
-341,606	446,185	0,031	0,050
-340,591	-27,343	-0,135	-0,057
-339,577	41,397	0,065	0,043
-338,562	800,000	0,040	0,083
-337,548	-107,253	0,119	-0,019
-336,533	180,610	0,036	-0,038
-335,518	75,474	-0,075	-0,058
-334,504	-28,362	0,030	-0,012
-333,489	-200,000	0,041	0,156
-332,475	210,189	0,020	0,023
-331,460	106,721	0,114	-0,099
-330,445	49,937	0,130	0,090
-329,431	-92,643	-0,052	0,010
-328,416	800,000	0,027	0,083
-327,402	-49,083	0,107	0,037
-326,387	536,893	0,017	0,030
-325,372	-106,141	-0,103	-0,017
-324,358	800,000	-0,032	-0,085
-323,343	102,845	-0,075	-0,064
-322,329	152,368	0,059	0,058
-321,314	-200,000	0,006	-0,036
-320,299	119,553	0,041	0,037
-319,285	-200,000	-0,005	0,063
-318,270	800,000	-0,035	-0,097
-317,256	121,520	-0,072	-0,065
-316,241	29,163	0,079	0,049
-315,226	-79,304	0,148	-0,036
-314,212	-30,022	0,167	-0,069
-313,197	-80,250	0,134	-0,032
-312,183	50,450	-0,040	-0,027
-311,168	230,792	-0,079	0,095
-310,153	298,310	-0,098	0,131
-309,139	278,470	-0,029	-0,037
-308,124	-140,289	0,086	-0,006
-307,110	227,465	0,038	-0,046
-306,095	-56,280	0,084	-0,027
-305,080	-121,129	-0,097	-0,012
-304,066	39,577	-0,044	0,029
-303,051	-200,000	-0,040	-0,151
-302,037	800,000	-0,033	-0,068
-301,022	577,009	-0,052	-0,094
-300,008	-200,000	0,030	0,110
-298,993	477,290	-0,056	0,093
-297,978	-150,416	-0,023	-0,001
-296,964	-200,000	0,004	0,153
-295,949	-117,052	-0,065	0,009
-294,935	79,070	-0,135	0,105
-293,920	7,716	0,100	-0,055
-292,905	-19,638	-0,113	0,051
-291,891	-41,120	-0,033	0,012
-290,876	-23,052	0,070	0,030
-289,862	800,000	0,052	0,163
-288,847	-200,000	-0,000	0,031
-287,832	-171,692	0,074	0,002
-286,818	-200,000	0,000	0,164
-285,803	-200,000	-0,024	-0,081
-284,789	-200,000	0,013	-0,072
-283,774	-193,343	0,068	-0,000
-282,759	-115,859	0,019	0,002
-281,745	78,360	-0,063	-0,049
-280,730	116,784	0,065	-0,059
-279,716	607,169	-0,022	0,040
-278,701	-39,224	-0,069	-0,026
-277,686	800,000	-0,033	0,069
-276,672	-200,000	-0,019	0,096
-275,657	-45,804	-0,023	0,008
-274,643	-200,000	-0,011	-0,112
-273,628	57,517	-0,012	0,008
-272,613	31,037	-0,129	-0,081
-271,599	54,739	-0,037	-0,026
-270,584	89,813	0,167	-0,135
-269,570	800,000	-0,048	-0,109
-268,555	-45,774	-0,120	-0,043
-267,540	381,149	0,034	0,050
-266,526	-62,032	-0,056	0,017
-265,511	-200,000	0,022	0,151
-264,497	149,858	0,053	0,053
-263,482	-50,097	0,117	-0,040
-262,467	-78,511	0,088	0,022
-261,453	-63,082	0,077	0,023
-260,438	-101,916	-0,077	-0,013
-259,424	266,873	0,021	-0,027
-258,409	593,488	0,060	0,108
-257,395	-5,541	-0,127	-0,063
-256,380	764,153	0,056	0,110
-255,365	-55,359	-0,071	-0,023
-254,351	-109,436	-0,062	-0,009
-253,336	800,000	-0,033	-0,095
-252,322	-42,830	-0,141	-0,052
-251,307	800,000	-0,036	-0,102
-250,292	-200,000	0,030	-0,159
-249,278	77,448	-0,015	-0,011
-248,263	-200,000	0,031	-0,150
-247,249	64,999	-0,021	0,015
-246,234	36,830	0,080	0,051
-245,219	-18,421	0,080	-0,036
-244,205	485,491	-0,065	0,109
-243,190	458,049	-0,021	0,035
-242,176	38,951	-0,068	-0,044
-241,161	-61,065	0,084	0,025
-240,146	460,386	0,031	-0,051
-239,132	168,061	-0,046	0,048
-238,117	-22,262	-0,035	0,015
-237,103	-200,000	-0,032	-0,131
-236,088	-96,087	0,108	-0,021
-235,073	-8,146	0,082	-0,040
-234,059	-124,510	0,091	-0,010
-233,044	168,216	0,094	0,097
-232,030	-32,906	-0,048	0,019
-231,015	254,132	0,077	0,095
-230,000	289,115	-0,062	-0,082
-228,986	-200,000	-0,007	0,027
-227,971	-200,000	-0,052	0,226
-226,957	-5,333	0,062	0,031
-225,942	-36,374	0,045	0,017
-224,927	66,268	-0,053	0,039
-223,913	-122,571	-0,181	-0,021
-222,898	-170,823	0,101	-0,002
-221,884	142,445	0,088	-0,085
-220,869	800,000	-0,028	0,069
-219,855	-200,000	0,011	0,075
-218,840	102,870	0,061	0,052
-217,825	142,132	-0,053	0,051
-216,811	0,094	-0,026	-0,014
-215,796	57,839	0,062	-0,044
-214,782	800,000	0,046	-0,115
-213,767	415,750	0,015	0,024
-212,752	-72,023	-0,031	0,008
-211,738	142,283	0,067	0,065
-210,723	800,000	-0,041	0,085
-209,709	16,445	-0,103	0,059
-208,694	354,988	-0,042	0,061
-207,679	-200,000	-0,017	0,145
-206,665	-88,561	0,074	0,016
-205,650	5,884	0,194	0,104
-204,636	-122,931	0,149	0,017
-203,621	645,889	0,044	-0,081
-202,606	-142,183	0,122	0,009
-201,592	736,856	0,043	-0,084
-200,577	800,000	0,056	0,133
-199,563	642,180	-0,027	-0,050
-198,548	420,575	-0,048	0,075
-197,533	-74,067	0,108	-0,028
-196,519	314,550	0,020	0,028
-195,504	140,572	-0,133	-0,128
-194,490	536,291	-0,044	-0,075
-193,475	800,000	0,059	0,137
-192,460	-200,000	-0,032	-0,145
-191,446	-170,751	0,036	0,001
-190,431	-71,303	-0,008	-0,002
-189,417	595,835	0,024	0,043
-188,402	81,699	0,076	0,059
-187,387	-95,029	0,056	-0,011
-186,373	-200,000	0,017	0,102
-185,358	433,496	-0,055	-0,087
-184,344	-200,000	-0,005	-0,023
-183,329	136,471	0,015	-0,014
-182,315	-200,000	-0,021	0,080
-181,300	697,088	-0,028	0,054
-180,285	-22,605	-0,143	-0,062
-179,271	800,000	-0,050	-0,144
-178,256	-32,121	-0,092	-0,037
-177,242	-200,000	0,005	0,018
-176,227	181,618	0,041	0,044
-175,212	5,563	0,052	0,028
-174,198	800,000	-0,005	-0,010
-173,183	39,677	-0,095	0,062
-172,169	261,108	-0,009	0,012
-171,154	800,000	-0,037	-0,080
-170,139	296,789	0,092	0,122
-169,125	-106,898	0,037	-0,006
-168,110	-200,000	-0,068	0,243
-167,096	447,809	-0,031	-0,050
-166,081	800,000	0,038	-0,078
-165,066	-90,553	0,036	-0,008
-164,052	800,000	0,019	-0,045
-163,037	800,000	-0,054	-0,142
-162,023	717,264	-0,043	0,084
-161,008	800,000	-0,010	0,031
-159,993	305,193	-0,113	-0,152
-158,979	-167,550	0,092	0,003
-157,964	-200,000	0,008	0,030
-156,950	-132,485	0,133	-0,012
-155,935	800,000	-0,016	0,048
-154,920	800,000	-0,051	0,130
-153,906	512,207	0,073	0,123
-152,891	800,000	-0,052	0,147
-151,877	-200,000	-0,002	-0,060
-150,862	-26,460	0,042	0,018
-149,847	557,641	-0,052	0,091
-148,833	-49,887	0,171	0,058
-147,818	306,360	0,079	0,107
-146,804	-90,015	0,034	0,007
-145,789	19,759	0,021	-0,012
-144,775	-19,994	0,051	0,023
-143,760	86,529	-0,016	0,013
-142,745	-200,000	-0,041	-0,191
-141,731	219,023	0,033	0,038
-140,716	572,690	0,091	-0,162
-139,702	52,006	0,059	0,041
-138,687	515,540	-0,082	-0,140
-137,672	-176,891	0,164	0,003
-136,658	74,982	0,110	0,083
-135,643	-119,250	-0,063	0,008
-134,629	-200,000	0,001	0,092
-133,614	-200,000	-0,014	0,076
-132,599	600,157	0,047	-0,085
-131,585	54,575	-0,103	0,072
-130,570	104,632	-0,096	0,082
-129,556	456,342	-0,080	-0,129
-128,541	-200,000	0,056	-0,181
-127,526	-186,210	0,104	-0,001
-126,512	217,577	-0,066	0,076
-125,497	25,733	-0,111	-0,067
-124,483	-105,466	0,022	-0,004
-123,468	-200,000	0,007	0,065
-122,453	44,364	0,063	-0,042
-121,439	800,000	-0,022	-0,047
-120,424	117,715	0,028	-0,025
-119,410	186,760	0,025	0,027
-118,395	800,000	0,047	-0,106
