DTS Sentinel unit serial number:	SN410029Multiplexer serial number:	ORYXHardware model number:	OX2-SRSoftware version number:	ORYX F/W v4,00 Oryx Data Collector v3.7.2.0data status	okinstallation	B6 Nyhavnadifferential loss correction	single-endedforward channel	channel 2reverse channel	N/Adate	2023/12/09time	12:10:08forward acquisition time	300,00reverse acquisition time	0,00gamma	499,1914k internal	0,3139k external	0,3139temperature offset calibration	1,0000default loss term (dB/km)	0,3820temperature slope calibration	1,0000multiplexer offset coefficient	1,0000multiplexer slope coefficient	1,0000fibre end	0,00T internal ref (°C)	19,19T ext. ref 1 (°C)	3,61T ext. ref 2 (°C)	3,60length (m)	temperature (°C)	Stokes	anti-Stokes-744,400	163,956	0,103	-0,108
-743,385	-88,316	-0,232	0,051
-742,371	-56,377	0,118	0,039
-741,356	-107,984	-0,185	-0,029
-740,342	-200,000	0,024	0,184
-739,327	248,679	-0,211	0,265
-738,312	-200,000	0,004	0,102
-737,298	75,697	-0,174	0,136
-736,283	-128,822	0,191	0,020
-735,269	-150,240	-0,310	-0,017
-734,254	-85,005	0,097	-0,022
-733,239	-102,818	-0,541	-0,095
-732,225	71,056	0,077	0,059
-731,210	30,574	0,068	0,043
-730,196	-200,000	-0,017	-0,103
-729,181	147,464	0,066	0,066
-728,167	737,031	-0,024	-0,048
-727,152	-132,609	-0,082	-0,008
-726,137	-200,000	-0,008	-0,069
-725,123	-200,000	-0,014	0,127
-724,108	122,616	-0,043	-0,039
-723,094	3,090	-0,157	-0,084
-722,079	-90,837	-0,045	0,009
-721,064	-76,012	0,051	-0,013
-720,050	196,704	-0,051	-0,058
-719,035	687,836	0,033	-0,065
-718,021	-153,834	-0,061	-0,003
-717,006	800,000	0,016	-0,036
-715,991	-200,000	0,004	-0,036
-714,977	90,272	-0,103	-0,085
-713,962	-115,919	-0,048	0,007
-712,948	-200,000	0,005	0,028
-711,933	-200,000	0,009	0,046
-710,918	-200,000	-0,019	0,113
-709,904	730,152	0,055	-0,109
-708,889	-200,000	-0,025	-0,115
-707,875	76,326	-0,097	-0,076
-706,860	-98,093	0,088	0,017
-705,845	-200,000	0,008	0,114
-704,831	-55,216	-0,179	0,059
-703,816	20,420	0,125	-0,075
-702,802	300,920	-0,020	0,027
-701,787	491,518	0,024	-0,041
-700,772	54,504	-0,165	-0,117
-699,758	301,248	-0,006	0,009
-698,743	-200,000	0,034	0,158
-697,729	30,279	-0,035	0,022
-696,714	6,533	0,098	0,054
-695,699	-62,669	0,076	0,023
-694,685	42,135	-0,146	-0,098
-693,670	112,784	0,077	0,069
-692,656	-200,000	0,009	-0,080
-691,641	139,193	0,107	-0,104
-690,627	-200,000	0,009	0,040
-689,612	163,539	0,080	0,083
-688,597	-51,231	-0,104	-0,036
-687,583	-135,040	-0,176	-0,015
-686,568	184,730	-0,111	-0,122
-685,554	-200,000	0,009	-0,132
-684,539	9,977	0,065	-0,036
-683,524	-18,801	0,084	-0,038
-682,510	262,540	0,065	0,083
-681,495	21,657	0,021	-0,012
-680,481	-46,936	-0,108	-0,039
-679,466	80,728	0,045	-0,036
-678,451	146,882	0,061	0,061
-677,437	455,738	-0,090	-0,149
-676,422	182,611	-0,071	-0,078
-675,408	145,404	-0,081	-0,080
-674,393	-22,799	0,020	0,009
-673,378	-5,936	-0,043	-0,022
-672,364	58,008	-0,132	-0,095
-671,349	101,878	0,025	-0,022
-670,335	268,145	-0,041	0,053
-669,320	276,418	-0,095	-0,124
-668,305	15,738	-0,150	0,087
-667,291	333,466	-0,012	0,018
-666,276	-200,000	-0,019	-0,105
-665,262	242,017	-0,123	-0,152
-664,247	80,379	0,093	0,074
-663,232	-200,000	-0,011	0,087
-662,218	27,249	-0,145	-0,090
-661,203	-200,000	-0,003	-0,026
-660,189	-118,361	0,101	-0,013
-659,174	116,192	-0,042	0,038
-658,159	149,271	0,026	0,026
-657,145	800,000	-0,028	-0,077
-656,130	28,487	0,055	0,034
-655,116	22,721	0,046	0,028
-654,101	108,937	0,054	0,047
-653,086	-200,000	-0,001	0,033
-652,072	800,000	0,035	0,076
-651,057	-69,310	0,012	-0,003
-650,043	-200,000	-0,014	0,069
-649,028	-200,000	-0,043	0,170
-648,014	-100,719	-0,159	-0,029
-646,999	800,000	-0,074	0,178
-645,984	-200,000	0,008	0,113
-644,970	170,500	-0,053	0,056
-643,955	-200,000	-0,011	0,050
-642,941	7,082	-0,064	-0,035
-641,926	26,143	0,138	-0,085
-640,911	-78,995	-0,012	-0,003
-639,897	-200,000	0,027	0,114
-638,882	43,023	0,077	0,052
-637,868	-85,557	0,049	-0,011
-636,853	57,564	-0,172	-0,124
-635,838	-200,000	0,025	-0,130
-634,824	-62,949	0,076	-0,023
-633,809	-134,179	0,083	-0,007
-632,795	-7,750	-0,024	0,012
-631,780	31,033	0,055	-0,035
-630,765	648,994	0,037	0,070
-629,751	314,731	-0,108	0,151
-628,736	-200,000	-0,023	-0,107
-627,722	800,000	0,014	0,031
-626,707	40,614	0,160	0,106
-625,692	248,571	-0,042	0,053
-624,678	657,906	0,043	0,082
-623,663	-161,326	0,103	-0,004
-622,649	79,451	0,047	-0,037
-621,634	-200,000	-0,004	-0,039
-620,619	-83,413	0,053	-0,013
-619,605	-99,205	0,109	0,020
-618,590	-200,000	-0,005	0,024
-617,576	47,140	-0,066	0,045
-616,561	-142,502	0,118	-0,008
-615,546	-113,509	-0,141	0,020
-614,532	-200,000	-0,018	0,068
-613,517	86,202	-0,012	-0,010
-612,503	-200,000	0,040	-0,151
-611,488	95,526	0,109	0,092
-610,474	238,892	-0,061	-0,075
-609,459	712,506	-0,033	-0,066
-608,444	94,042	-0,065	-0,054
-607,430	489,258	-0,053	0,090
-606,415	-35,969	-0,048	0,019
-605,401	-8,180	0,051	0,025
-604,386	-91,819	0,188	0,039
-603,371	-200,000	0,012	-0,089
-602,357	57,065	0,048	-0,034
-601,342	-174,372	0,073	0,002
-600,328	149,631	-0,091	0,091
-599,313	671,171	-0,051	-0,099
-598,298	211,980	0,036	-0,042
-597,284	119,187	0,113	0,103
-596,269	317,497	-0,033	0,046
-595,255	800,000	-0,066	0,181
-594,240	140,817	-0,089	-0,087
-593,225	72,811	0,067	-0,052
-592,211	6,089	-0,222	-0,121
-591,196	800,000	-0,022	0,071
-590,182	96,266	-0,031	0,026
-589,167	800,000	0,047	0,148
-588,152	-200,000	-0,000	-0,039
-587,138	-200,000	0,022	-0,092
-586,123	116,299	-0,033	-0,030
-585,109	296,166	-0,059	0,080
-584,094	-55,692	-0,124	0,041
-583,079	41,824	0,172	0,115
-582,065	-200,000	-0,011	0,069
-581,050	-14,337	0,083	-0,039
-580,036	70,732	-0,089	0,068
-579,021	515,126	-0,047	-0,081
-578,006	60,978	0,104	0,076
-576,992	182,915	-0,029	-0,031
-575,977	379,401	0,032	-0,049
-574,963	-200,000	0,024	-0,125
-573,948	95,484	-0,028	0,024
-572,934	-200,000	0,009	0,113
-571,919	-1,693	-0,012	0,006
-570,904	180,854	0,033	0,036
-569,890	50,694	-0,167	0,117
-568,875	-85,328	-0,067	-0,015
-567,861	390,612	0,052	0,079
-566,846	402,952	-0,072	0,112
-565,831	786,244	-0,003	0,007
-564,817	-124,689	0,059	-0,007
-563,802	83,520	-0,110	-0,088
-562,788	379,886	-0,009	-0,013
-561,773	26,838	-0,086	-0,053
-560,758	150,725	-0,068	0,068
-559,744	210,388	0,062	0,072
-558,729	32,825	0,054	0,035
-557,715	88,609	-0,057	0,047
-556,700	-26,222	0,073	-0,031
-555,685	-200,000	-0,002	-0,042
-554,671	-200,000	-0,007	0,028
-553,656	-33,471	0,091	-0,037
-552,642	800,000	0,019	-0,041
-551,627	115,519	-0,050	0,045
-550,612	39,015	-0,109	0,072
-549,598	207,572	-0,047	-0,055
-548,583	800,000	-0,009	0,020
-547,569	-200,000	-0,003	0,048
-546,554	123,408	0,053	0,049
-545,539	-200,000	-0,007	0,043
-544,525	-200,000	-0,003	-0,024
-543,510	-200,000	0,019	-0,093
-542,496	-50,481	-0,105	-0,036
-541,481	408,156	-0,051	-0,080
-540,466	33,504	-0,052	-0,033
-539,452	-71,574	0,107	0,029
-538,437	-108,644	0,163	0,025
-537,423	-105,931	-0,099	-0,016
-536,408	18,624	-0,069	-0,041
-535,393	-200,000	-0,015	0,063
-534,379	87,581	-0,085	-0,069
-533,364	290,373	-0,071	-0,095
-532,350	800,000	-0,007	-0,017
-531,335	125,106	-0,051	0,047
-530,321	-200,000	0,004	0,089
-529,306	100,522	0,056	0,048
-528,291	800,000	-0,025	0,064
-527,277	-161,337	-0,078	0,003
-526,262	132,960	-0,123	-0,117
-525,248	-200,000	-0,007	-0,056
-524,233	-200,000	-0,002	-0,101
-523,218	-89,013	0,042	-0,009
-522,204	179,788	0,046	0,049
-521,189	-89,778	0,081	-0,017
-520,175	296,810	-0,102	-0,138
-519,160	113,391	0,062	-0,055
-518,145	164,456	-0,098	0,102
-517,131	-47,970	0,072	-0,025
-516,116	-163,093	-0,041	0,001
-515,102	527,352	0,038	-0,066
-514,087	-11,119	-0,055	-0,026
-513,072	-16,814	-0,063	-0,029
-512,058	44,723	-0,046	-0,031
-511,043	93,571	-0,057	0,048
-510,029	7,485	0,052	-0,028
-509,014	506,497	-0,093	-0,159
-507,999	-12,310	-0,069	-0,033
-506,985	800,000	0,018	-0,049
-505,970	82,303	-0,125	-0,099
-504,956	142,547	0,086	-0,084
-503,941	-127,218	0,098	-0,010
-502,926	-2,322	0,097	-0,050
-501,912	-86,214	0,067	-0,015
-500,897	-199,760	-0,115	0,000
-499,883	54,684	-0,169	0,120
-498,868	199,344	-0,107	-0,120
-497,853	26,434	-0,155	-0,095
-496,839	40,498	-0,150	0,099
-495,824	164,758	-0,060	-0,062
-494,810	68,420	0,084	0,063
-493,795	84,322	0,010	0,008
-492,781	-200,000	-0,023	0,160
-491,766	22,012	-0,078	-0,047
-490,751	-200,000	0,013	-0,109
-489,737	290,488	0,065	0,087
-488,722	19,330	-0,068	0,040
-487,708	-38,936	0,050	0,019
-486,693	-75,028	0,048	-0,013
-485,678	-119,460	0,083	-0,010
-484,664	420,730	-0,077	-0,122
-483,649	800,000	0,035	-0,074
-482,635	-24,738	-0,063	-0,027
-481,620	-200,000	-0,013	-0,069
-480,605	-200,000	-0,019	0,139
-479,591	800,000	-0,014	-0,030
-478,576	-27,488	0,038	0,016
-477,562	800,000	-0,041	0,110
-476,547	-17,431	-0,045	0,021
-475,532	-200,000	-0,025	0,112
-474,518	-200,000	0,001	-0,062
-473,503	460,559	-0,032	0,052
-472,489	-135,964	0,074	-0,006
-471,474	800,000	0,012	0,030
-470,459	-197,478	-0,118	0,001
-469,445	478,388	-0,005	0,009
-468,430	-94,107	-0,093	0,019
-467,416	257,178	-0,076	-0,096
-466,401	-67,129	0,075	-0,022
-465,386	-121,721	-0,084	0,010
-464,372	-200,000	-0,018	-0,146
-463,357	-200,000	0,093	-0,000
-462,343	800,000	-0,061	-0,137
-461,328	429,914	0,064	0,101
-460,313	-200,000	-0,017	0,085
-459,299	157,612	-0,078	0,080
-458,284	45,104	0,047	0,032
-457,270	77,052	-0,055	-0,043
-456,255	-106,434	-0,171	-0,028
-455,241	190,882	0,105	-0,116
-454,226	51,061	-0,044	-0,030
-453,211	-89,681	0,075	0,016
-452,197	-200,000	-0,028	-0,096
-451,182	-200,000	0,000	-0,088
-450,168	-88,456	-0,112	0,024
-449,153	179,755	0,092	-0,099
-448,138	800,000	0,022	-0,047
-447,124	212,487	0,132	-0,153
-446,109	-130,598	-0,023	-0,002
-445,095	696,296	-0,041	0,080
-444,080	-33,887	0,100	0,040
-443,065	139,188	0,060	0,058
-442,051	-48,657	0,095	0,033
-441,036	429,818	-0,021	-0,033
-440,022	271,459	0,032	-0,041
-439,007	-9,722	-0,064	0,031
-437,992	13,796	-0,079	0,045
-436,978	-153,327	0,149	0,007
-435,963	-200,000	-0,013	0,081
-434,949	255,281	-0,110	0,138
-433,934	24,359	-0,114	0,069
-432,919	-200,000	0,004	0,023
-431,905	-57,962	-0,078	0,025
-430,890	-24,091	0,157	-0,068
-429,876	-51,248	-0,035	0,012
-428,861	598,329	-0,029	0,053
-427,846	-106,372	-0,107	0,017
-426,832	264,862	-0,070	-0,089
-425,817	-41,693	-0,043	-0,016
-424,803	85,105	-0,066	0,053
-423,788	-23,863	0,165	0,072
-422,773	-200,000	0,050	0,176
-421,759	-157,738	-0,012	0,001
-420,744	-200,000	-0,024	-0,078
-419,730	623,569	-0,069	-0,128
-418,715	421,164	-0,032	-0,051
-417,701	800,000	0,024	0,056
-416,686	-109,435	-0,029	-0,004
-415,671	-80,427	-0,049	0,012
-414,657	-17,595	-0,037	-0,017
-413,642	800,000	-0,008	-0,026
-412,628	9,074	-0,080	-0,044
-411,613	343,799	-0,041	0,059
-410,598	-5,283	0,084	-0,042
-409,584	-25,614	-0,114	0,049
-408,569	278,764	0,083	0,108
-407,555	-200,000	0,039	0,130
-406,540	-115,848	-0,083	0,011
-405,525	-200,000	0,006	-0,081
-404,511	-200,000	0,011	-0,096
-403,496	-58,142	0,144	0,046
-402,482	800,000	-0,039	0,119
-401,467	-200,000	0,032	0,120
-400,452	-56,882	0,217	0,070
-399,438	800,000	0,049	-0,115
-398,423	-200,000	-0,015	0,077
-397,409	800,000	0,048	0,140
-396,394	716,628	-0,078	-0,152
-395,379	800,000	-0,087	-0,179
-394,365	68,754	0,096	-0,072
-393,350	800,000	0,052	0,105
-392,336	800,000	0,010	0,022
-391,321	-200,000	-0,010	0,034
-390,306	165,985	-0,077	0,080
-389,292	-160,290	-0,172	0,007
-388,277	407,859	0,020	0,030
-387,263	800,000	0,025	-0,061
-386,248	132,279	0,058	0,055
-385,233	-200,000	-0,035	0,149
-384,219	-99,318	0,083	0,015
-383,204	171,023	-0,067	0,071
-382,190	89,229	-0,043	0,035
-381,175	-78,175	0,038	0,009
-380,160	-18,373	0,092	0,042
-379,146	800,000	0,085	0,207
-378,131	-128,210	0,059	0,006
-377,117	800,000	-0,026	-0,083
-376,102	-17,876	-0,192	-0,088
-375,088	-200,000	0,010	-0,082
-374,073	19,724	-0,113	-0,066
-373,058	543,620	0,019	0,034
-372,044	-200,000	0,001	-0,055
-371,029	443,189	0,051	0,082
-370,015	-126,082	-0,132	-0,014
-369,000	-200,000	-0,019	-0,151
-367,985	-200,000	0,012	-0,166
-366,971	-165,120	-0,050	0,002
-365,956	445,410	-0,003	0,005
-364,942	-122,478	0,224	0,026
-363,927	-80,604	0,134	0,032
-362,912	-200,000	-0,015	0,118
-361,898	-7,881	0,060	0,030
-360,883	14,874	0,115	-0,066
-359,869	-123,854	0,042	0,005
-358,854	201,276	0,078	0,087
-357,839	64,709	-0,014	0,011
-356,825	41,806	0,119	-0,079
-355,810	-95,421	-0,188	-0,036
-354,796	-96,650	-0,079	-0,015
-353,781	145,939	-0,012	-0,012
-352,766	-39,152	0,088	-0,033
-351,752	16,085	-0,039	0,022
-350,737	799,494	0,030	0,060
-349,723	-76,453	0,139	-0,036
-348,708	189,578	-0,036	0,039
-347,693	425,520	-0,079	0,125
-346,679	642,649	0,043	-0,080
-345,664	31,529	0,024	0,015
-344,650	272,873	0,052	-0,067
-343,635	800,000	0,049	0,151
-342,620	-98,269	0,119	0,022
-341,606	179,380	0,033	-0,035
-340,591	-9,457	-0,027	0,013
-339,577	58,020	-0,071	0,050
-338,562	49,430	0,110	-0,075
-337,548	-50,647	-0,066	-0,022
-336,533	127,583	0,056	-0,052
-335,518	-171,413	-0,140	-0,003
-334,504	-200,000	0,002	0,057
-333,489	800,000	-0,004	0,010
-332,475	1,758	-0,134	-0,070
-331,460	-105,212	0,082	-0,014
-330,445	-75,538	-0,031	-0,008
-329,431	425,254	-0,043	0,067
-328,416	85,856	0,094	0,075
-327,402	-131,927	-0,066	0,006
-326,387	-200,000	-0,009	0,067
-325,372	254,561	-0,113	-0,141
-324,358	388,571	0,069	-0,105
-323,343	800,000	-0,018	0,048
-322,329	98,458	0,118	-0,100
-321,314	-124,411	0,097	0,011
-320,299	47,572	-0,068	0,046
-319,285	-200,000	0,052	-0,200
-318,270	264,863	0,108	-0,137
-317,256	-148,079	0,022	-0,001
-316,241	800,000	-0,022	-0,057
-315,226	43,269	0,034	-0,023
-314,212	541,500	0,056	0,098
-313,197	-5,810	0,106	0,053
-312,183	259,428	0,025	0,031
-311,168	-34,794	-0,125	0,049
-310,153	800,000	0,052	-0,129
-309,139	5,847	0,078	-0,042
-308,124	-200,000	-0,001	0,022
-307,110	-200,000	-0,007	-0,049
-306,095	-186,402	0,104	0,001
-305,080	-200,000	0,008	-0,073
-304,066	181,668	0,035	-0,038
-303,051	-18,232	0,009	0,004
-302,037	-82,349	-0,113	-0,027
-301,022	-2,567	0,139	0,071
-300,008	137,051	0,056	0,053
-298,993	-96,364	0,153	-0,029
-297,978	112,983	-0,095	0,084
-296,964	85,480	0,114	-0,091
-295,949	258,942	-0,134	-0,169
-294,935	-139,139	-0,102	-0,008
-293,920	392,430	-0,059	0,090
-292,905	800,000	0,045	0,143
-291,891	-200,000	-0,002	0,167
-290,876	425,761	-0,057	0,090
-289,862	-200,000	0,009	0,059
-288,847	800,000	-0,017	0,050
-287,832	-200,000	0,036	-0,135
-286,818	485,951	-0,036	-0,060
-285,803	-66,434	0,077	0,022
-284,789	215,326	0,082	-0,095
-283,774	19,393	0,074	-0,043
-282,759	75,099	0,141	0,108
-281,745	-200,000	-0,011	-0,039
-280,730	-130,790	-0,189	-0,018
-279,716	242,828	-0,098	-0,120
-278,701	507,766	0,027	0,045
-277,686	800,000	0,014	0,031
-276,672	472,995	-0,069	0,113
-275,657	14,865	-0,098	-0,056
-274,643	60,502	-0,028	-0,020
-273,628	-56,384	-0,089	-0,029
-272,613	694,785	-0,048	-0,091
-271,599	266,677	0,100	0,128
-270,584	469,852	-0,106	0,173
-269,570	-200,000	-0,019	-0,086
-268,555	50,364	0,151	-0,104
-267,540	-190,763	-0,113	0,001
-266,526	84,059	0,047	0,037
-265,511	559,837	-0,032	-0,057
-264,497	800,000	0,074	-0,177
-263,482	-200,000	0,022	0,082
-262,467	-200,000	0,010	0,120
-261,453	270,544	0,003	0,003
-260,438	132,792	-0,098	0,092
-259,424	349,781	-0,059	0,085
-258,409	800,000	0,008	0,017
-257,395	6,209	0,072	0,039
-256,380	12,213	-0,044	0,025
-255,365	800,000	-0,028	-0,089
-254,351	-200,000	-0,073	-0,000
-253,336	-187,169	-0,032	0,000
-252,322	-63,412	0,063	-0,019
-251,307	75,566	-0,067	0,051
-250,292	129,863	-0,078	0,073
-249,278	643,197	0,023	0,043
-248,263	70,868	-0,027	0,020
-247,249	247,181	0,044	0,054
-246,234	800,000	-0,016	0,036
-245,219	287,598	0,033	-0,043
-244,205	-39,223	0,099	-0,037
-243,190	140,942	0,083	0,079
-242,176	51,430	0,094	-0,065
-241,161	545,639	-0,014	0,024
-240,146	800,000	0,008	-0,018
-239,132	-200,000	-0,017	-0,095
-238,117	131,352	-0,106	0,099
-237,103	-168,465	0,181	0,005
-236,088	-200,000	-0,006	-0,101
-235,073	-111,135	0,054	0,008
-234,059	278,501	0,095	-0,123
-233,044	-15,283	0,107	-0,049
-232,030	-200,000	0,008	-0,079
-231,015	-200,000	0,020	0,146
-230,000	-200,000	-0,004	-0,132
-228,986	800,000	-0,046	0,112
-227,971	35,352	0,111	0,070
-226,957	800,000	-0,058	-0,146
-225,942	-13,202	0,065	-0,031
-224,927	800,000	-0,071	-0,161
-223,913	-125,075	0,111	0,012
-222,898	-88,887	0,055	0,012
-221,884	171,085	-0,100	-0,104
-220,869	-157,971	-0,100	0,004
-219,855	745,365	0,023	0,046
-218,840	-11,192	0,083	0,040
-217,825	-200,000	-0,022	-0,135
-216,811	-200,000	-0,014	0,060
-215,796	25,405	0,082	0,050
-214,782	-200,000	-0,008	-0,091
-213,767	17,282	-0,032	0,019
-212,752	-148,549	0,115	-0,007
-211,738	137,356	-0,110	-0,104
-210,723	-200,000	0,012	-0,064
-209,709	-200,000	0,012	0,074
-208,694	-48,816	0,031	0,011
-207,679	59,341	0,100	0,072
-206,665	-200,000	0,032	0,109
-205,650	800,000	0,060	0,131
-204,636	239,414	0,042	0,051
-203,621	-194,456	-0,039	0,000
-202,606	304,362	-0,063	-0,086
-201,592	799,358	-0,021	-0,043
-200,577	-200,000	-0,001	0,059
-199,563	-24,642	-0,102	0,044
-198,548	-82,210	0,010	0,002
-197,533	567,287	-0,039	-0,068
-196,519	770,195	0,057	0,114
-195,504	-4,978	-0,070	-0,035
-194,490	551,170	-0,013	0,023
-193,475	163,729	0,151	-0,154
-192,460	67,795	0,027	0,020
-191,446	800,000	-0,044	0,134
-190,431	-200,000	-0,006	0,062
-189,417	503,425	-0,055	-0,093
-188,402	-200,000	0,002	-0,092
-187,387	-100,491	-0,154	-0,027
-186,373	370,536	-0,054	-0,079
-185,358	51,435	0,104	-0,071
-184,344	605,997	-0,014	-0,025
-183,329	800,000	0,021	-0,068
-182,315	-200,000	0,005	-0,147
-181,300	-200,000	-0,037	-0,144
-180,285	-63,577	-0,097	-0,029
-179,271	-200,000	-0,017	-0,058
-178,256	-191,143	0,106	-0,001
-177,242	-200,000	-0,025	0,093
-176,227	188,110	0,042	-0,046
-175,212	-53,862	0,107	0,035
-174,198	-200,000	-0,000	-0,011
-173,183	554,279	-0,038	-0,067
-172,169	285,842	-0,034	-0,045
-171,154	-200,000	0,005	0,042
-170,139	98,909	0,152	0,128
-169,125	723,751	0,039	0,076
-168,110	414,858	0,014	-0,022
-167,096	800,000	0,008	-0,022
-166,081	164,082	0,020	-0,021
-165,066	800,000	0,039	-0,107
-164,052	-200,000	-0,004	0,018
-163,037	-83,609	0,016	0,004
-162,023	332,570	-0,022	-0,031
-161,008	43,264	-0,057	0,038
-159,993	638,021	0,114	0,210
-158,979	-60,624	0,062	-0,019
-157,964	-23,091	0,097	0,042
-156,950	-200,000	-0,002	-0,046
-155,935	800,000	0,042	-0,119
-154,920	-45,840	0,040	0,014
-153,906	-77,145	0,111	-0,028
-152,891	15,287	-0,086	0,049
-151,877	800,000	0,007	-0,017
-150,862	198,891	0,068	-0,076
-149,847	161,058	0,079	0,080
-148,833	260,604	-0,048	0,061
-147,818	584,441	0,053	0,096
-146,804	0,640	0,092	0,048
-145,789	656,149	-0,065	0,121
-144,775	800,000	-0,059	0,120
-143,760	436,535	0,040	-0,063
-142,745	800,000	0,035	-0,092
-141,731	800,000	-0,049	0,108
-140,716	418,697	-0,044	0,069
-139,702	800,000	-0,018	0,055
-138,687	800,000	0,012	-0,032
-137,672	-7,873	-0,089	0,043
-136,658	188,580	0,140	-0,152
-135,643	-66,970	-0,079	-0,022
-134,629	800,000	0,015	0,040
-133,614	123,749	-0,078	-0,071
-132,599	33,880	0,083	-0,052
-131,585	-93,067	-0,041	-0,008
-130,570	800,000	-0,052	0,167
-129,556	-56,291	-0,116	0,037
-128,541	-200,000	-0,004	-0,028
-127,526	-200,000	0,019	-0,080
-126,512	-91,577	0,019	-0,004
-125,497	-103,386	0,137	0,023
-124,483	355,611	-0,077	0,111
-123,468	144,781	-0,030	-0,029
-122,453	0,425	0,141	0,073
-121,439	-6,340	-0,131	0,065
-120,424	-200,000	0,029	-0,171
-119,410	-79,093	-0,142	0,035
-118,395	-200,000	-0,014	0,084
-117,380	12,964	-0,030	0,017
