DTS Sentinel unit serial number:	SN410029Multiplexer serial number:	ORYXHardware model number:	OX2-SRSoftware version number:	ORYX F/W v4,00 Oryx Data Collector v3.7.2.0data status	okinstallation	B6 Nyhavnadifferential loss correction	single-endedforward channel	channel 2reverse channel	N/Adate	2023/12/10time	22:30:08forward acquisition time	300,00reverse acquisition time	0,00gamma	499,1914k internal	0,3123k external	0,3123temperature offset calibration	1,0000default loss term (dB/km)	0,3820temperature slope calibration	1,0000multiplexer offset coefficient	1,0000multiplexer slope coefficient	1,0000fibre end	0,00T internal ref (°C)	22,37T ext. ref 1 (°C)	6,16T ext. ref 2 (°C)	6,15length (m)	temperature (°C)	Stokes	anti-Stokes-744,400	228,225	0,029	-0,035
-743,385	-94,368	-0,158	0,032
-742,371	800,000	0,044	0,102
-741,356	225,159	-0,133	0,161
-740,342	-96,280	0,035	0,007
-739,327	-133,526	-0,175	-0,016
-738,312	-12,731	-0,088	-0,043
-737,298	139,055	-0,154	0,151
-736,283	33,421	0,054	-0,035
-735,269	-106,889	-0,234	0,038
-734,254	631,928	0,042	0,080
-733,239	-92,744	-0,489	-0,101
-732,225	-18,142	0,145	0,067
-731,210	-117,107	0,165	-0,022
-730,196	-200,000	-0,014	-0,072
-729,181	-175,930	-0,116	-0,002
-728,167	3,723	-0,118	0,064
-727,152	-200,000	-0,007	0,041
-726,137	510,972	-0,098	-0,171
-725,123	159,641	-0,093	-0,096
-724,108	427,072	0,033	-0,053
-723,094	-44,930	-0,119	0,044
-722,079	-25,989	-0,201	0,088
-721,064	-200,000	-0,022	-0,122
-720,050	67,735	-0,047	0,036
-719,035	-200,000	-0,012	0,083
-718,021	-85,459	0,077	0,018
-717,006	800,000	-0,051	-0,112
-715,991	223,175	-0,081	-0,098
-714,977	-18,554	0,066	-0,030
-713,962	-172,393	-0,105	0,002
-712,948	-200,000	0,015	0,106
-711,933	800,000	-0,026	-0,065
-710,918	800,000	-0,070	-0,156
-709,904	-105,459	-0,132	0,022
-708,889	800,000	-0,037	-0,087
-707,875	800,000	-0,051	-0,147
-706,860	800,000	-0,011	-0,028
-705,845	-177,865	0,004	0,000
-704,831	-48,235	-0,121	-0,043
-703,816	-134,250	-0,034	-0,003
-702,802	82,515	0,054	-0,044
-701,787	-200,000	-0,007	-0,054
-700,772	-200,000	-0,002	0,035
-699,758	-31,930	0,022	0,009
-698,743	143,120	0,045	-0,044
-697,729	800,000	0,003	0,008
-696,714	163,394	0,080	-0,084
-695,699	-46,872	0,069	0,025
-694,685	800,000	0,035	0,103
-693,670	289,838	0,109	-0,147
-692,656	486,545	0,042	-0,072
-691,641	345,315	0,094	0,138
-690,627	-34,392	0,146	0,059
-689,612	100,830	-0,081	0,070
-688,597	59,106	-0,100	0,073
-687,583	-102,788	-0,104	0,018
-686,568	75,386	-0,042	-0,033
-685,554	-200,000	-0,003	-0,027
-684,539	7,166	0,105	0,058
-683,524	389,716	0,022	-0,034
-682,510	-32,237	-0,071	0,029
-681,495	-67,137	0,115	0,034
-680,481	98,451	0,057	-0,048
-679,466	68,657	-0,086	-0,066
-678,451	-200,000	-0,001	-0,027
-677,437	-95,562	0,068	0,013
-676,422	524,045	-0,057	0,101
-675,408	-39,740	0,068	-0,026
-674,393	-85,955	0,036	-0,008
-673,378	-33,351	-0,114	0,047
-672,364	68,081	0,055	0,042
-671,349	800,000	0,016	-0,040
-670,335	509,792	0,019	0,033
-669,320	-200,000	-0,016	-0,061
-668,305	800,000	-0,053	0,130
-667,291	67,982	0,072	-0,055
-666,276	-200,000	-0,006	0,078
-665,262	-200,000	0,010	-0,113
-664,247	244,081	-0,043	-0,054
-663,232	800,000	0,033	-0,078
-662,218	800,000	-0,047	-0,103
-661,203	-51,219	0,273	0,095
-660,189	190,640	0,063	-0,070
-659,174	-0,410	-0,082	0,043
-658,159	-170,470	-0,093	-0,002
-657,145	-137,780	-0,123	-0,010
-656,130	-18,634	-0,093	-0,043
-655,116	-191,454	0,139	-0,001
-654,101	53,784	-0,068	0,048
-653,086	-48,386	0,118	0,042
-652,072	800,000	-0,031	-0,099
-651,057	562,704	0,023	0,042
-650,043	92,356	0,146	-0,122
-649,028	-95,411	-0,034	0,007
-648,014	-23,523	0,110	-0,049
-646,999	-200,000	0,003	0,120
-645,984	-118,972	-0,175	0,023
-644,970	179,543	-0,064	-0,070
-643,955	800,000	-0,072	-0,223
-642,941	118,728	-0,182	-0,167
-641,926	189,078	-0,115	0,128
-640,911	43,437	-0,058	0,039
-639,897	343,580	0,054	-0,079
-638,882	-200,000	-0,002	-0,033
-637,868	7,457	-0,019	0,011
-636,853	-200,000	0,000	-0,072
-635,838	-126,540	-0,032	-0,003
-634,824	-68,757	0,111	-0,032
-633,809	287,540	0,064	0,086
-632,795	-39,060	0,099	-0,038
-631,780	-200,000	0,007	0,092
-630,765	-129,996	-0,161	0,016
-629,751	89,179	-0,024	-0,020
-628,736	800,000	-0,034	-0,092
-627,722	353,852	0,029	0,043
-626,707	800,000	0,030	0,067
-625,692	232,933	0,060	0,073
-624,678	-200,000	-0,003	0,053
-623,663	-200,000	0,015	0,076
-622,649	-168,770	0,034	0,001
-621,634	59,725	-0,065	0,047
-620,619	34,167	-0,183	0,118
-619,605	800,000	0,017	-0,048
-618,590	-25,147	-0,085	0,037
-617,576	-200,000	-0,001	0,071
-616,561	26,231	-0,093	-0,058
-615,546	-200,000	-0,026	0,149
-614,532	40,373	-0,072	-0,048
-613,517	53,247	-0,136	-0,096
-612,503	-143,746	-0,051	-0,003
-611,488	370,676	0,067	0,101
-610,474	-152,708	0,053	0,003
-609,459	-125,755	0,142	-0,016
-608,444	12,849	-0,037	0,021
-607,430	-200,000	-0,038	0,132
-606,415	-116,932	-0,100	0,013
-605,401	591,311	-0,083	-0,152
-604,386	-200,000	0,002	0,027
-603,371	61,073	-0,036	0,027
-602,357	97,970	0,116	0,099
-601,342	800,000	0,043	0,095
-600,328	138,362	-0,166	-0,162
-599,313	207,589	-0,059	-0,068
-598,298	-116,008	0,127	-0,017
-597,284	-109,083	0,061	0,010
-596,269	-28,827	0,050	0,021
-595,255	109,953	-0,029	0,026
-594,240	482,685	-0,048	-0,082
-593,225	-200,000	0,039	-0,130
-592,211	110,388	0,122	-0,109
-591,196	480,134	-0,067	0,113
-590,182	351,880	0,036	0,052
-589,167	-97,255	0,091	0,018
-588,152	166,346	-0,070	0,073
-587,138	794,336	0,012	-0,024
-586,123	171,584	-0,076	0,081
-585,109	-82,629	0,042	-0,010
-584,094	-57,323	-0,074	-0,024
-583,079	188,371	-0,035	-0,039
-582,065	463,891	0,078	-0,130
-581,050	120,594	0,071	0,066
-580,036	782,534	0,036	-0,074
-579,021	-7,692	0,063	0,031
-578,006	-59,602	-0,065	-0,021
-576,992	158,827	0,011	-0,011
-575,977	800,000	-0,018	-0,050
-574,963	-64,511	0,142	-0,043
-573,948	-200,000	-0,086	0,000
-572,934	28,296	0,056	-0,035
-571,919	800,000	-0,033	-0,087
-570,904	-200,000	-0,005	-0,045
-569,890	194,340	0,073	-0,082
-568,875	152,854	-0,134	0,136
-567,861	800,000	-0,046	0,130
-566,846	-47,584	-0,066	-0,024
-565,831	123,464	-0,031	-0,029
-564,817	94,941	0,033	0,028
-563,802	559,603	-0,031	-0,055
-562,788	-200,000	0,000	0,024
-561,773	800,000	-0,017	0,056
-560,758	489,117	-0,036	0,061
-559,744	0,934	-0,033	0,017
-558,729	250,647	0,043	0,054
-557,715	-200,000	-0,039	0,251
-556,700	-7,797	-0,125	-0,062
-555,685	59,683	0,033	0,024
-554,671	-200,000	0,001	-0,049
-553,656	-135,655	-0,033	0,003
-552,642	800,000	0,027	-0,081
-551,627	-200,000	-0,011	-0,157
-550,612	157,726	0,068	-0,069
-549,598	361,091	0,045	-0,067
-548,583	-200,000	-0,010	-0,075
-547,569	800,000	0,028	-0,061
-546,554	198,084	0,032	0,036
-545,539	362,406	0,099	-0,148
-544,525	122,404	-0,069	0,064
-543,510	-135,839	-0,077	0,007
-542,496	-200,000	0,006	-0,024
-541,481	555,855	-0,081	-0,144
-540,466	564,981	0,022	0,040
-539,452	-200,000	-0,016	0,095
-538,437	9,508	0,059	0,033
-537,423	-45,885	0,017	-0,006
-536,408	-200,000	0,001	-0,007
-535,393	-50,031	-0,045	0,016
-534,379	279,128	-0,028	-0,037
-533,364	-63,503	0,023	-0,007
-532,350	-77,363	0,089	-0,023
-531,335	-94,864	0,080	-0,016
-530,321	-200,000	0,005	-0,128
-529,306	-69,714	-0,154	0,043
-528,291	87,894	0,039	0,032
-527,277	800,000	-0,045	-0,110
-526,262	17,856	0,039	-0,023
-525,248	247,347	-0,090	0,112
-524,233	330,027	0,068	0,097
-523,218	-74,142	0,144	-0,038
-522,204	-200,000	0,007	0,052
-521,189	450,573	0,070	0,114
-520,175	516,506	-0,065	-0,113
-519,160	-200,000	-0,032	-0,181
-518,145	143,367	0,059	0,058
-517,131	-113,410	0,137	0,020
-516,116	-0,445	-0,061	0,032
-515,102	103,829	-0,076	0,066
-514,087	-200,000	0,005	-0,035
-513,072	-80,455	-0,072	-0,018
-512,058	-200,000	0,003	0,028
-511,043	713,898	-0,026	0,051
-510,029	800,000	0,043	-0,129
-509,014	-200,000	-0,016	0,059
-507,999	65,601	-0,024	-0,018
-506,985	-200,000	0,015	-0,156
-505,970	800,000	0,039	-0,099
-504,956	800,000	0,090	0,239
-503,941	288,753	0,006	-0,009
-502,926	192,368	-0,093	0,104
-501,912	800,000	-0,006	0,017
-500,897	-76,214	-0,088	0,023
-499,883	-96,061	-0,040	-0,008
-498,868	746,672	-0,081	-0,161
-497,853	83,592	-0,082	-0,066
-496,839	162,481	-0,090	-0,094
-495,824	-200,000	0,001	-0,093
-494,810	-117,829	0,049	0,006
-493,795	121,017	-0,095	-0,087
-492,781	-200,000	-0,004	0,117
-491,766	26,787	-0,062	-0,039
-490,751	82,247	-0,067	0,054
-489,737	-200,000	-0,010	-0,090
-488,722	800,000	0,030	-0,083
-487,708	201,350	0,035	0,040
-486,693	146,022	0,109	0,107
-485,678	159,249	-0,032	0,032
-484,664	-110,797	-0,144	0,022
-483,649	449,523	-0,057	0,094
-482,635	-200,000	-0,006	0,077
-481,620	-200,000	0,012	0,082
-480,605	39,617	0,066	0,043
-479,591	-51,763	0,064	0,022
-478,576	568,365	-0,064	0,115
-477,562	23,849	-0,085	0,052
-476,547	233,388	0,061	-0,074
-475,532	254,974	0,083	-0,105
-474,518	69,209	0,078	-0,059
-473,503	800,000	-0,025	0,078
-472,489	213,153	0,048	0,056
-471,474	-199,203	-0,165	-0,001
-470,459	74,129	0,024	-0,018
-469,445	800,000	-0,023	-0,069
-468,430	-200,000	-0,026	-0,123
-467,416	-90,721	0,061	-0,013
-466,401	-200,000	0,026	-0,099
-465,386	131,880	-0,024	0,022
-464,372	-134,999	0,089	-0,008
-463,357	-161,205	-0,049	0,002
-462,343	-160,077	-0,144	0,006
-461,328	-200,000	-0,016	0,077
-460,313	-47,383	0,021	-0,008
-459,299	364,219	-0,066	0,098
-458,284	120,979	0,036	0,033
-457,270	307,503	0,078	0,108
-456,255	-16,312	-0,143	-0,067
-455,241	-200,000	0,014	0,081
-454,226	-87,230	-0,092	-0,020
-453,211	109,520	0,149	-0,132
-452,197	231,331	0,034	-0,041
-451,182	576,124	-0,057	-0,103
-450,168	-101,707	-0,188	-0,033
-449,153	-68,093	0,037	0,010
-448,138	-52,359	-0,019	0,007
-447,124	800,000	-0,027	-0,080
-446,109	14,959	0,030	-0,018
-445,095	559,432	-0,062	0,110
-444,080	176,279	0,044	-0,047
-443,065	607,207	0,033	-0,060
-442,051	296,748	0,092	0,125
-441,036	-200,000	0,026	-0,108
-440,022	-100,640	-0,066	0,012
-439,007	123,695	-0,109	-0,101
-437,992	-12,227	0,106	0,051
-436,978	-61,852	0,107	0,033
-435,963	800,000	0,056	-0,162
-434,949	283,387	-0,043	0,057
-433,934	800,000	-0,041	-0,114
-432,919	-200,000	0,022	-0,076
-431,905	26,715	0,091	-0,056
-430,890	-19,111	0,169	0,077
-429,876	-8,046	0,126	-0,063
-428,861	-161,904	-0,038	-0,001
-427,846	-39,494	-0,039	-0,015
-426,832	-17,193	-0,201	-0,093
-425,817	150,431	0,033	-0,033
-424,803	-25,387	-0,141	-0,061
-423,788	800,000	0,091	0,197
-422,773	-87,914	-0,022	0,005
-421,759	129,800	0,112	0,106
-420,744	-19,319	-0,179	0,081
-419,730	-157,916	-0,042	0,002
-418,715	-200,000	0,007	-0,081
-417,701	219,601	0,065	0,077
-416,686	-85,556	-0,088	-0,020
-415,671	220,863	0,041	-0,049
-414,657	-131,465	0,052	0,005
-413,642	-39,652	-0,053	0,020
-412,628	-8,960	-0,017	0,009
-411,613	-98,705	-0,051	0,009
-410,598	-200,000	-0,041	-0,139
-409,584	448,472	0,027	0,044
-408,569	187,143	-0,094	0,104
-407,555	-200,000	0,000	0,063
-406,540	66,137	0,104	0,077
-405,525	-92,213	0,076	-0,016
-404,511	800,000	0,043	-0,126
-403,496	-200,000	0,026	-0,086
-402,482	303,773	0,062	0,085
-401,467	800,000	-0,030	-0,096
-400,452	-90,733	-0,095	-0,020
-399,438	416,321	0,021	-0,033
-398,423	-200,000	0,004	-0,040
-397,409	113,065	0,037	-0,033
-396,394	-200,000	0,036	-0,142
-395,379	-200,000	-0,015	-0,067
-394,365	800,000	0,051	-0,109
-393,350	800,000	-0,010	-0,030
-392,336	800,000	-0,017	0,038
-391,321	52,090	-0,111	-0,078
-390,306	123,869	-0,092	-0,085
-389,292	134,527	-0,058	-0,055
-388,277	-157,485	0,117	-0,005
-387,263	153,083	-0,015	0,015
-386,248	439,892	0,088	0,142
-385,233	-200,000	0,050	0,188
-384,219	-78,397	-0,260	-0,065
-383,204	74,825	0,024	-0,019
-382,190	-156,535	0,058	0,003
-381,175	-200,000	-0,010	0,134
-380,160	123,357	0,059	-0,054
-379,146	133,505	0,039	-0,037
-378,131	-126,522	0,069	0,007
-377,117	583,552	-0,078	-0,141
-376,102	632,975	-0,046	-0,087
-375,088	-112,506	-0,061	0,009
-374,073	-44,612	0,038	0,014
-373,058	800,000	-0,026	0,060
-372,044	-180,581	0,043	-0,001
-371,029	-23,604	-0,024	0,011
-370,015	800,000	-0,050	0,147
-369,000	-9,427	-0,059	0,029
-367,985	-69,791	-0,093	-0,026
-366,971	-13,117	-0,079	0,037
-365,956	-136,289	0,205	-0,017
-364,942	227,662	0,032	-0,039
-363,927	-200,000	0,002	0,020
-362,912	800,000	0,064	0,170
-361,898	28,279	-0,029	0,018
-360,883	92,570	-0,032	0,026
-359,869	-116,011	-0,112	0,015
-358,854	123,232	0,127	0,117
-357,839	31,425	0,096	0,060
-356,825	127,654	-0,078	0,073
-355,810	11,696	0,063	0,036
-354,796	-200,000	-0,014	-0,064
-353,781	220,420	-0,094	-0,111
-352,766	187,154	0,018	-0,020
-351,752	800,000	0,030	0,082
-350,737	-200,000	0,028	0,235
-349,723	418,852	0,042	-0,067
-348,708	78,723	0,020	0,016
-347,693	800,000	-0,012	0,033
-346,679	113,224	-0,129	-0,115
-345,664	503,129	0,047	0,081
-344,650	158,413	0,042	0,042
-343,635	-200,000	0,109	0,000
-342,620	670,054	0,009	0,018
-341,606	396,716	-0,022	0,034
-340,591	202,317	-0,015	0,017
-339,577	659,633	-0,053	-0,101
-338,562	528,933	-0,045	0,079
-337,548	129,364	-0,129	0,121
-336,533	-60,211	0,158	-0,049
-335,518	87,421	0,089	0,072
-334,504	-200,000	-0,016	-0,133
-333,489	-118,482	-0,067	0,009
-332,475	634,479	-0,012	0,023
-331,460	-200,000	0,012	0,094
-330,445	-200,000	-0,014	-0,058
-329,431	800,000	0,031	-0,072
-328,416	125,519	0,082	0,076
-327,402	-200,000	-0,006	0,100
-326,387	20,469	-0,138	0,081
-325,372	-200,000	-0,050	0,182
-324,358	-97,943	0,185	-0,035
-323,343	-40,056	-0,146	-0,055
-322,329	-32,167	0,023	-0,009
-321,314	122,286	-0,027	0,025
-320,299	800,000	-0,056	0,123
-319,285	-158,532	-0,033	-0,001
-318,270	742,533	-0,056	-0,111
-317,256	219,608	0,077	-0,090
-316,241	338,731	0,062	-0,088
-315,226	-38,958	0,096	-0,037
-314,212	-113,685	0,128	-0,018
-313,197	16,597	0,043	0,025
-312,183	-200,000	0,013	0,058
-311,168	695,761	-0,051	-0,099
-310,153	20,676	-0,086	-0,051
-309,139	-200,000	0,009	-0,035
-308,124	406,698	0,045	0,069
-307,110	800,000	-0,036	-0,107
-306,095	489,195	0,032	0,054
-305,080	-129,713	-0,099	-0,010
-304,066	317,777	-0,051	0,071
-303,051	277,706	-0,089	-0,116
-302,037	398,890	-0,039	-0,060
-301,022	-200,000	0,002	0,042
-300,008	89,832	-0,021	0,017
-298,993	368,606	0,034	-0,050
-297,978	800,000	-0,023	-0,063
-296,964	-200,000	0,004	-0,122
-295,949	97,754	0,075	-0,063
-294,935	-16,763	0,131	-0,060
-293,920	-12,124	0,079	-0,038
-292,905	-200,000	-0,013	0,127
-291,891	-84,305	0,024	0,005
-290,876	800,000	0,056	0,139
-289,862	-20,765	-0,109	-0,049
-288,847	-200,000	0,006	0,128
-287,832	701,467	-0,078	-0,151
-286,818	-200,000	-0,045	-0,157
-285,803	-129,162	0,109	0,011
-284,789	-120,255	0,155	-0,019
-283,774	563,568	0,059	0,105
-282,759	800,000	0,046	-0,147
-281,745	-130,669	0,038	0,004
-280,730	207,476	-0,101	0,116
-279,716	-128,509	-0,090	-0,009
-278,701	115,873	0,152	-0,136
-277,686	-58,350	0,062	-0,020
-276,672	-200,000	-0,009	0,100
-275,657	179,805	-0,158	-0,169
-274,643	-37,703	-0,029	-0,011
-273,628	-200,000	0,009	-0,045
-272,613	-200,000	-0,026	0,147
-271,599	800,000	0,047	0,121
-270,584	-102,982	0,213	0,037
-269,570	-200,000	0,035	0,115
-268,555	18,610	-0,038	-0,022
-267,540	-137,368	-0,131	-0,011
-266,526	-69,939	-0,095	-0,026
-265,511	800,000	-0,010	0,027
-264,497	645,490	0,035	-0,067
-263,482	-97,020	-0,116	0,022
-262,467	-200,000	-0,003	0,036
-261,453	-171,207	0,100	-0,002
-260,438	-117,225	0,075	-0,010
-259,424	800,000	-0,030	0,061
-258,409	366,805	0,033	0,049
-257,395	-88,212	0,083	0,018
-256,380	-200,000	-0,003	0,076
-255,365	-102,253	0,125	-0,022
-254,351	800,000	-0,027	-0,062
-253,336	-70,484	0,096	0,027
-252,322	800,000	-0,020	-0,058
-251,307	87,901	0,082	-0,067
-250,292	800,000	-0,065	-0,144
-249,278	47,379	0,105	-0,072
-248,263	-58,637	0,030	0,009
-247,249	-44,346	-0,158	-0,058
-246,234	233,427	0,058	-0,070
-245,219	15,700	-0,051	-0,030
-244,205	323,305	0,052	-0,073
-243,190	59,178	0,092	0,066
-242,176	-25,339	0,149	-0,064
-241,161	-200,000	-0,015	0,153
-240,146	8,493	0,044	-0,024
-239,132	-27,799	-0,053	0,022
-238,117	359,012	-0,076	-0,111
-237,103	14,565	0,052	0,029
-236,088	-149,383	-0,121	-0,007
-235,073	-151,691	-0,028	0,001
-234,059	16,868	0,099	0,057
-233,044	-130,851	0,163	-0,016
-232,030	-165,894	-0,078	0,002
-231,015	227,752	0,023	-0,027
-230,000	-200,000	-0,000	0,045
-228,986	243,202	0,083	0,102
-227,971	27,635	-0,077	0,047
-226,957	5,844	0,193	0,104
-225,942	-16,465	0,041	-0,019
-224,927	189,282	0,095	0,104
-223,913	319,369	0,047	-0,066
-222,898	-200,000	-0,017	-0,098
-221,884	144,124	0,011	0,011
-220,869	135,380	-0,037	0,035
-219,855	-200,000	-0,005	0,121
-218,840	741,059	-0,056	0,110
-217,825	368,403	0,062	-0,091
-216,811	-16,995	-0,091	0,042
-215,796	-61,477	0,023	0,007
-214,782	800,000	0,026	-0,055
-213,767	-200,000	0,018	-0,141
-212,752	-110,872	0,132	-0,020
-211,738	208,629	0,048	0,055
-210,723	77,394	0,019	0,014
-209,709	508,066	0,096	-0,163
-208,694	138,407	-0,128	-0,123
-207,679	-148,594	0,041	0,002
-206,665	186,428	0,015	-0,016
-205,650	358,242	0,075	0,109
-204,636	222,079	-0,018	0,021
-203,621	-200,000	-0,009	0,117
-202,606	222,822	-0,050	0,059
-201,592	-200,000	0,017	-0,063
-200,577	37,455	0,077	-0,050
-199,563	661,755	-0,008	-0,016
-198,548	104,287	0,113	0,097
-197,533	-2,337	-0,125	0,064
-196,519	66,395	0,105	-0,078
-195,504	-200,000	-0,000	-0,122
-194,490	-21,580	0,062	0,028
-193,475	17,895	-0,023	0,013
-192,460	-200,000	0,026	0,086
-191,446	518,020	0,096	0,165
-190,431	800,000	-0,016	0,043
-189,417	118,112	0,076	0,068
-188,402	-86,673	-0,074	-0,016
-187,387	638,418	-0,060	-0,112
-186,373	-150,951	-0,057	0,003
-185,358	-5,361	-0,065	0,033
-184,344	106,960	0,068	-0,059
-183,329	-75,534	-0,027	0,007
-182,315	102,955	-0,138	0,118
-181,300	299,078	0,036	0,048
-180,285	50,857	-0,082	-0,056
-179,271	177,297	0,056	0,059
-178,256	-11,171	-0,080	-0,038
-177,242	800,000	0,058	0,144
-176,227	-153,309	0,040	-0,002
-175,212	-7,221	-0,087	0,043
-174,198	-200,000	0,028	0,110
-173,183	459,472	-0,024	0,039
-172,169	-38,916	0,113	-0,043
-171,154	-119,953	0,078	-0,010
-170,139	-53,072	0,042	0,014
-169,125	5,366	0,165	0,089
-168,110	-25,105	0,037	-0,016
-167,096	-129,552	-0,091	-0,009
-166,081	-200,000	-0,004	-0,145
-165,066	-200,000	-0,024	0,076
-164,052	21,948	0,061	0,036
-163,037	-47,391	-0,114	-0,040
-162,023	-34,648	0,075	0,030
-161,008	163,378	0,078	0,080
-159,993	-200,000	-0,000	-0,015
-158,979	43,325	-0,095	0,063
-157,964	-77,077	-0,105	-0,026
-156,950	-48,501	0,020	-0,007
-155,935	408,337	0,036	-0,056
-154,920	-63,844	-0,108	0,032
-153,906	-63,765	0,105	0,031
-152,891	172,030	-0,087	0,092
-151,877	-46,608	0,081	-0,029
-150,862	-134,480	-0,049	0,004
-149,847	800,000	0,022	0,070
-148,833	297,964	-0,024	0,032
-147,818	-24,128	0,096	0,042
-146,804	-109,863	0,092	0,014
-145,789	-84,179	-0,053	-0,012
-144,775	800,000	-0,006	0,015
-143,760	248,181	-0,103	-0,127
-142,745	-82,343	-0,168	0,039
-141,731	800,000	-0,014	-0,030
-140,716	-136,620	-0,060	0,005
-139,702	-14,461	0,097	0,045
-138,687	187,171	0,147	0,160
-137,672	270,062	0,057	0,073
-136,658	578,364	0,045	-0,080
-135,643	215,835	0,108	0,125
-134,629	-11,700	-0,093	0,044
-133,614	-68,033	-0,134	-0,038
-132,599	123,058	0,152	0,139
-131,585	-200,000	-0,009	0,194
-130,570	479,213	-0,065	0,107
-129,556	248,848	0,050	-0,061
-128,541	-140,748	0,091	0,007
-127,526	-94,220	0,173	0,034
-126,512	457,274	0,012	-0,019
-125,497	800,000	0,039	-0,112
-124,483	-68,637	0,143	-0,040
-123,468	616,520	0,039	0,071
-122,453	-51,315	-0,050	-0,017
-121,439	-65,398	-0,132	-0,038
-120,424	800,000	0,025	-0,066
-119,410	231,460	0,068	-0,082
-118,395	690,393	-0,034	-0,066
