DTS Sentinel unit serial number:	SN410029Multiplexer serial number:	ORYXHardware model number:	OX2-SRSoftware version number:	ORYX F/W v4,00 Oryx Data Collector v3.7.2.0data status	okinstallation	B6 Nyhavnadifferential loss correction	single-endedforward channel	channel 2reverse channel	N/Adate	2023/12/07time	22:05:08forward acquisition time	300,00reverse acquisition time	0,00gamma	499,1914k internal	0,3165k external	0,3165temperature offset calibration	1,0000default loss term (dB/km)	0,3820temperature slope calibration	1,0000multiplexer offset coefficient	1,0000multiplexer slope coefficient	1,0000fibre end	0,00T internal ref (°C)	13,62T ext. ref 1 (°C)	-3,29T ext. ref 2 (°C)	-3,30length (m)	temperature (°C)	Stokes	anti-Stokes-744,400	419,010	0,090	0,142
-743,385	-77,640	-0,277	-0,070
-742,371	-76,138	0,181	0,047
-741,356	-39,339	-0,144	-0,055
-740,342	77,027	0,117	0,091
-739,327	-43,326	-0,314	0,116
-738,312	-29,772	0,067	0,028
-737,298	-83,857	-0,343	-0,080
-736,283	800,000	0,023	0,058
-735,269	-83,123	-0,190	-0,045
-734,254	-81,537	0,120	0,029
-733,239	-50,277	-0,404	-0,140
-732,225	76,949	0,062	0,048
-731,210	58,673	-0,091	0,065
-730,196	-200,000	0,005	0,051
-729,181	800,000	0,042	0,098
-728,167	471,990	-0,029	0,048
-727,152	-37,659	0,026	-0,010
-726,137	-71,314	-0,163	0,045
-725,123	-200,000	-0,005	0,115
-724,108	-156,583	-0,083	0,004
-723,094	-27,027	-0,133	-0,057
-722,079	33,567	-0,094	-0,060
-721,064	-88,655	0,102	-0,022
-720,050	-200,000	0,011	0,087
-719,035	-200,000	-0,018	-0,088
-718,021	-88,627	-0,067	-0,015
-717,006	157,075	0,081	0,083
-715,991	800,000	0,043	-0,098
-714,977	-28,084	0,046	-0,020
-713,962	-115,726	-0,061	0,008
-712,948	67,791	0,059	0,045
-711,933	-37,230	-0,092	0,036
-710,918	-200,000	0,035	-0,152
-709,904	-200,000	-0,021	-0,242
-708,889	-39,031	-0,037	-0,014
-707,875	-200,000	-0,004	0,022
-706,860	-142,619	-0,147	0,010
-705,845	-200,000	0,004	-0,027
-704,831	-15,216	-0,080	-0,038
-703,816	-79,306	0,044	-0,011
-702,802	28,381	0,040	0,025
-701,787	-22,277	-0,115	0,051
-700,772	-95,739	0,095	0,018
-699,758	-145,069	0,114	-0,008
-698,743	-78,536	-0,047	0,012
-697,729	197,087	0,083	0,093
-696,714	-200,000	-0,031	-0,117
-695,699	-200,000	0,007	-0,033
-694,685	-44,106	-0,046	0,017
-693,670	347,473	0,096	-0,139
-692,656	800,000	0,047	-0,111
-691,641	-200,000	0,008	0,066
-690,627	57,163	0,257	0,184
-689,612	-117,690	-0,055	0,007
-688,597	24,146	-0,162	-0,098
-687,583	79,229	-0,067	-0,053
-686,568	-200,000	-0,008	-0,100
-685,554	369,318	-0,038	-0,057
-684,539	33,796	0,109	-0,070
-683,524	144,871	0,050	-0,050
-682,510	800,000	-0,060	0,174
-681,495	-200,000	-0,001	0,036
-680,481	-36,583	-0,044	0,017
-679,466	295,282	-0,038	0,051
-678,451	249,411	-0,038	-0,048
-677,437	59,620	-0,061	-0,044
-676,422	-144,905	0,035	-0,002
-675,408	-66,701	0,071	0,021
-674,393	800,000	-0,038	-0,112
-673,378	-148,112	-0,035	-0,002
-672,364	-132,130	-0,107	0,010
-671,349	454,944	-0,098	0,161
-670,335	-200,000	-0,033	-0,148
-669,320	-119,832	0,093	-0,012
-668,305	30,711	0,104	0,065
-667,291	158,496	0,031	-0,032
-666,276	-119,662	-0,104	0,013
-665,262	-30,935	-0,108	0,044
-664,247	-127,694	0,018	-0,002
-663,232	-62,964	0,154	-0,046
-662,218	-55,197	0,093	-0,031
-661,203	-86,161	0,049	0,011
-660,189	-104,237	0,118	0,020
-659,174	800,000	-0,060	-0,148
-658,159	-4,873	-0,071	-0,036
-657,145	-80,499	-0,095	-0,023
-656,130	-200,000	-0,008	-0,068
-655,116	632,709	0,032	0,059
-654,101	85,843	-0,052	0,042
-653,086	134,943	0,131	-0,125
-652,072	-126,394	-0,090	0,010
-651,057	-200,000	0,013	-0,205
-650,043	-200,000	0,004	-0,040
-649,028	-200,000	0,000	0,096
-648,014	288,334	0,010	-0,013
-646,999	-133,661	0,074	0,007
-645,984	10,286	-0,099	0,055
-644,970	116,129	-0,135	-0,122
-643,955	-114,892	-0,048	-0,007
-642,941	-71,602	-0,082	-0,022
-641,926	800,000	0,014	0,031
-640,911	-200,000	-0,007	-0,082
-639,897	-200,000	0,001	0,060
-638,882	69,133	0,099	0,074
-637,868	-80,246	0,139	-0,034
-636,853	-7,618	-0,126	0,062
-635,838	355,405	-0,042	0,061
-634,824	-200,000	0,013	-0,065
-633,809	-91,529	0,171	0,035
-632,795	-200,000	-0,003	0,044
-631,780	-200,000	0,009	0,061
-630,765	352,045	-0,109	-0,158
-629,751	-8,617	-0,028	-0,014
-628,736	175,506	0,016	0,017
-627,722	-19,615	-0,113	-0,051
-626,707	-200,000	0,005	0,016
-625,692	800,000	0,012	-0,027
-624,678	124,656	0,097	-0,090
-623,663	-75,643	0,076	-0,020
-622,649	-200,000	0,014	-0,074
-621,634	800,000	-0,018	-0,048
-620,619	-105,821	0,101	0,017
-619,605	149,638	0,063	-0,063
-618,590	-200,000	-0,005	0,102
-617,576	70,577	-0,144	-0,109
-616,561	-21,905	0,035	-0,016
-615,546	-97,522	-0,067	-0,013
-614,532	-200,000	-0,011	-0,098
-613,517	-200,000	0,013	-0,123
-612,503	385,630	-0,029	-0,045
-611,488	-104,052	-0,026	0,004
-610,474	-200,000	-0,004	0,013
-609,459	136,208	0,020	0,019
-608,444	13,560	0,020	0,012
-607,430	-61,155	-0,055	-0,017
-606,415	-167,410	-0,103	0,003
-605,401	84,187	0,142	-0,113
-604,386	54,207	0,063	0,044
-603,371	73,860	-0,081	0,062
-602,357	-40,575	0,004	-0,002
-601,342	800,000	-0,038	-0,109
-600,328	-200,000	0,024	-0,106
-599,313	-98,640	0,097	0,018
-598,298	-46,357	-0,119	0,042
-597,284	-198,234	0,117	-0,000
-596,269	-200,000	-0,004	0,101
-595,255	800,000	0,068	0,186
-594,240	-102,531	-0,039	0,007
-593,225	-96,927	-0,143	-0,027
-592,211	104,030	-0,061	0,053
-591,196	3,852	-0,094	-0,050
-590,182	-200,000	-0,009	0,058
-589,167	226,017	0,031	-0,037
-588,152	800,000	0,029	-0,068
-587,138	355,094	-0,045	0,065
-586,123	366,861	-0,083	-0,123
-585,109	104,639	0,013	-0,011
-584,094	-84,678	-0,064	0,015
-583,079	-8,278	0,076	0,037
-582,065	-200,000	-0,003	0,081
-581,050	800,000	-0,041	0,090
-580,036	-200,000	0,017	0,089
-579,021	-106,571	0,033	-0,005
-578,006	-200,000	-0,013	-0,071
-576,992	-200,000	0,011	0,117
-575,977	-140,509	0,096	-0,007
-574,963	-200,000	-0,027	0,094
-573,948	800,000	0,067	0,142
-572,934	800,000	0,017	-0,050
-571,919	-81,589	-0,092	-0,022
-570,904	-123,462	-0,049	0,006
-569,890	79,134	0,067	0,053
-568,875	-33,678	0,030	-0,012
-567,861	324,057	-0,060	0,083
-566,846	729,950	0,084	-0,165
-565,831	-200,000	0,022	-0,095
-564,817	-200,000	0,010	0,042
-563,802	71,236	0,035	0,026
-562,788	46,030	-0,027	0,018
-561,773	89,807	0,146	-0,119
-560,758	-44,098	0,075	-0,027
-559,744	-200,000	0,010	0,044
-558,729	-92,793	0,064	-0,013
-557,715	800,000	-0,016	-0,041
-556,700	732,516	-0,008	0,016
-555,685	800,000	-0,075	-0,170
-554,671	-200,000	-0,011	-0,081
-553,656	-70,626	0,138	0,038
-552,642	32,586	0,084	-0,053
-551,627	-200,000	0,005	0,097
-550,612	-200,000	-0,016	0,171
-549,598	-46,945	-0,048	0,017
-548,583	135,863	0,069	-0,066
-547,569	-200,000	0,006	-0,030
-546,554	153,647	0,091	-0,091
-545,539	-53,054	-0,065	0,022
-544,525	66,017	0,053	0,039
-543,510	211,336	0,043	-0,049
-542,496	81,461	-0,049	0,039
-541,481	-200,000	-0,024	-0,096
-540,466	463,122	0,049	-0,080
-539,452	164,713	-0,055	0,057
-538,437	-200,000	-0,010	0,127
-537,423	-21,702	-0,054	-0,024
-536,408	221,576	0,060	0,070
-535,393	-64,421	-0,074	-0,022
-534,379	800,000	0,017	0,040
-533,364	673,019	0,034	-0,065
-532,350	800,000	-0,043	-0,107
-531,335	737,188	0,048	0,095
-530,321	-88,462	0,093	-0,020
-529,306	800,000	-0,007	-0,019
-528,291	124,110	0,054	-0,049
-527,277	-101,886	-0,081	-0,014
-526,262	800,000	-0,071	-0,186
-525,248	-123,941	0,079	0,009
-524,233	-65,469	0,168	-0,049
-523,218	800,000	-0,031	-0,063
-522,204	-200,000	0,020	0,080
-521,189	-200,000	-0,004	0,029
-520,175	-60,917	-0,011	0,004
-519,160	-3,605	-0,164	0,083
-518,145	204,251	0,050	-0,056
-517,131	-200,000	0,056	0,246
-516,116	800,000	-0,027	0,056
-515,102	69,295	0,085	-0,064
-514,087	78,507	-0,067	-0,052
-513,072	-130,460	-0,103	-0,010
-512,058	-64,337	-0,107	-0,032
-511,043	-200,000	-0,023	-0,113
-510,029	-200,000	0,006	0,032
-509,014	253,356	0,056	0,069
-507,999	52,199	-0,070	-0,049
-506,985	56,735	0,070	0,050
-505,970	78,055	0,032	-0,025
-504,956	-200,000	-0,011	-0,099
-503,941	538,550	-0,024	0,042
-502,926	-200,000	0,017	-0,089
-501,912	182,292	0,043	0,046
-500,897	800,000	0,024	-0,066
-499,883	-120,378	-0,008	-0,001
-498,868	800,000	-0,018	-0,057
-497,853	270,451	-0,094	0,121
-496,839	-200,000	0,018	-0,080
-495,824	800,000	-0,035	0,084
-494,810	-35,667	-0,155	0,061
-493,795	25,323	0,037	-0,022
-492,781	-200,000	0,011	0,074
-491,766	-94,712	-0,169	-0,033
-490,751	387,537	-0,030	-0,046
-489,737	800,000	0,043	0,101
-488,722	339,046	0,037	0,053
-487,708	101,614	0,035	-0,029
-486,693	-143,108	-0,112	-0,008
-485,678	260,701	-0,017	-0,022
-484,664	-200,000	-0,021	0,079
-483,649	7,010	-0,068	-0,037
-482,635	-105,062	0,042	0,007
-481,620	-177,937	0,042	0,001
-480,605	-74,136	-0,030	-0,008
-479,591	-1,996	-0,047	-0,024
-478,576	272,921	0,054	-0,070
-477,562	-127,455	0,096	-0,010
-476,547	-200,000	0,037	-0,182
-475,532	426,913	-0,047	-0,074
-474,518	-200,000	0,005	0,078
-473,503	33,190	0,140	0,089
-472,489	800,000	0,029	0,066
-471,474	-62,136	-0,019	-0,006
-470,459	565,046	-0,053	-0,093
-469,445	-200,000	-0,044	-0,158
-468,430	-15,352	-0,080	-0,037
-467,416	-121,152	-0,043	-0,005
-466,401	800,000	0,027	0,083
-465,386	-200,000	0,021	-0,112
-464,372	-131,433	-0,023	-0,002
-463,357	106,573	0,075	0,065
-462,343	487,084	-0,087	-0,145
-461,328	34,202	0,054	0,034
-460,313	-200,000	0,022	0,097
-459,299	-121,375	0,120	0,014
-458,284	-200,000	0,021	0,094
-457,270	-30,619	0,019	-0,008
-456,255	800,000	-0,002	-0,005
-455,241	-38,565	0,100	-0,038
-454,226	-200,000	-0,011	-0,064
-453,211	800,000	0,019	-0,059
-452,197	1,356	-0,133	0,069
-451,182	-169,310	0,117	0,003
-450,168	99,390	-0,070	-0,058
-449,153	33,399	-0,150	-0,094
-448,138	-60,582	-0,053	0,016
-447,124	-200,000	0,005	-0,030
-446,109	1,234	0,097	0,051
-445,095	800,000	-0,005	0,012
-444,080	-34,114	0,062	0,025
-443,065	-200,000	-0,021	0,122
-442,051	-32,865	-0,048	0,019
-441,036	-91,140	-0,072	0,015
-440,022	257,674	0,048	-0,060
-439,007	-200,000	0,029	0,123
-437,992	0,760	-0,153	0,079
-436,978	-110,663	0,017	-0,003
-435,963	-200,000	-0,001	-0,051
-434,949	-55,983	-0,119	-0,038
-433,934	666,455	-0,071	-0,134
-432,919	-32,897	-0,028	0,011
-431,905	-169,383	0,085	0,002
-430,890	800,000	-0,019	-0,041
-429,876	-200,000	-0,004	0,019
-428,861	-200,000	-0,045	0,235
-427,846	61,206	0,043	-0,031
-426,832	-19,374	0,106	-0,048
-425,817	229,240	-0,036	-0,043
-424,803	-24,156	0,154	-0,067
-423,788	-156,023	0,106	-0,005
-422,773	-90,625	0,199	-0,042
-421,759	-126,716	-0,046	0,005
-420,744	800,000	-0,015	-0,041
-419,730	-139,193	-0,038	-0,003
-418,715	82,330	-0,101	-0,080
-417,701	39,154	0,098	0,064
-416,686	435,711	0,029	-0,046
-415,671	-200,000	0,022	0,107
-414,657	98,169	0,082	0,069
-413,642	274,676	-0,070	-0,091
-412,628	-36,249	0,098	-0,038
-411,613	101,841	0,033	-0,028
-410,598	117,404	-0,080	-0,071
-409,584	-200,000	0,002	-0,052
-408,569	13,973	0,022	0,013
-407,555	22,468	0,123	-0,073
-406,540	55,065	-0,002	0,002
-405,525	-8,833	0,021	0,010
-404,511	800,000	0,011	0,031
-403,496	592,812	0,053	0,095
-402,482	-200,000	-0,009	0,080
-401,467	-1,610	-0,028	0,014
-400,452	163,215	0,112	0,115
-399,438	296,860	0,079	0,105
-398,423	-110,194	-0,116	-0,017
-397,409	317,529	-0,071	-0,097
-396,394	451,052	0,064	-0,103
-395,379	444,084	-0,047	0,075
-394,365	59,707	0,103	0,074
-393,350	557,009	0,079	-0,140
-392,336	800,000	-0,034	0,081
-391,321	57,933	-0,098	0,069
-390,306	-200,000	-0,010	-0,100
-389,292	39,015	0,034	0,022
-388,277	-200,000	-0,003	-0,068
-387,263	-89,485	-0,052	-0,011
-386,248	90,772	-0,034	0,028
-385,233	800,000	0,039	-0,097
-384,219	163,926	0,091	0,093
-383,204	-50,524	-0,034	-0,012
-382,190	-22,322	0,055	-0,024
-381,175	763,465	-0,043	-0,084
-380,160	-200,000	-0,019	0,213
-379,146	800,000	-0,027	0,057
-378,131	-200,000	-0,005	0,114
-377,117	205,421	-0,092	0,104
-376,102	461,276	-0,039	0,064
-375,088	800,000	0,024	-0,068
-374,073	-200,000	0,034	-0,192
-373,058	-41,299	0,080	-0,030
-372,044	-200,000	-0,017	0,072
-371,029	-112,231	0,067	0,010
-370,015	786,480	0,082	-0,165
-369,000	800,000	-0,035	-0,076
-367,985	215,735	0,122	-0,141
-366,971	-100,096	-0,216	0,039
-365,956	475,662	0,113	0,186
-364,942	-84,644	0,152	0,034
-363,927	-200,000	-0,013	-0,074
-362,912	159,252	0,043	0,043
-361,898	-43,846	0,112	-0,041
-360,883	-46,796	-0,036	-0,013
-359,869	149,266	0,148	-0,145
-358,854	128,179	-0,026	0,024
-357,839	-57,919	0,077	0,024
-356,825	-141,260	0,088	0,006
-355,810	800,000	0,020	-0,062
-354,796	-104,317	0,160	-0,027
-353,781	597,057	-0,065	-0,117
-352,766	123,503	-0,061	0,055
-351,752	165,879	-0,063	-0,065
-350,737	-200,000	0,070	0,230
-349,723	-21,991	0,082	-0,036
-348,708	484,560	0,017	-0,029
-347,693	-137,610	-0,132	-0,011
-346,679	-157,628	-0,065	-0,003
-345,664	162,593	-0,052	-0,053
-344,650	196,053	0,017	-0,019
-343,635	470,163	0,081	0,133
-342,620	-35,564	0,140	-0,055
-341,606	85,919	-0,109	0,087
-340,591	-0,611	-0,117	0,060
-339,577	33,551	-0,096	-0,060
-338,562	800,000	-0,060	-0,126
-337,548	334,431	0,019	0,026
-336,533	-200,000	0,012	0,044
-335,518	-13,195	0,067	-0,031
-334,504	-37,312	-0,133	0,051
-333,489	-200,000	0,013	0,097
-332,475	275,558	0,029	-0,038
-331,460	-7,525	-0,122	0,060
-330,445	86,281	0,105	-0,084
-329,431	330,930	-0,065	-0,091
-328,416	-200,000	0,000	0,058
-327,402	752,500	0,067	0,131
-326,387	-200,000	-0,024	0,149
-325,372	-103,658	-0,092	0,015
-324,358	800,000	-0,079	0,191
-323,343	276,451	-0,050	-0,064
-322,329	103,957	0,128	0,109
-321,314	800,000	-0,072	0,151
-320,299	-118,996	0,115	-0,014
-319,285	56,537	-0,027	0,019
-318,270	-200,000	-0,003	0,104
-317,256	-26,254	-0,039	-0,017
-316,241	370,105	0,036	0,053
-315,226	-99,224	-0,033	0,006
-314,212	39,053	0,083	0,053
-313,197	360,903	0,047	0,068
-312,183	-200,000	0,011	0,118
-311,168	7,149	-0,049	0,027
-310,153	-200,000	-0,024	-0,114
-309,139	-200,000	0,002	0,033
-308,124	-200,000	-0,001	-0,003
-307,110	800,000	0,016	0,048
-306,095	800,000	-0,041	-0,119
-305,080	-125,252	-0,089	-0,010
-304,066	-200,000	-0,001	-0,107
-303,051	-4,824	-0,038	-0,019
-302,037	-200,000	0,016	-0,082
-301,022	-74,425	-0,084	-0,022
-300,008	-96,696	0,099	-0,019
-298,993	-51,486	0,174	0,058
-297,978	800,000	0,056	-0,123
-296,964	800,000	-0,046	-0,106
-295,949	-200,000	0,012	0,132
-294,935	83,826	0,007	-0,006
-293,920	-200,000	0,009	-0,061
-292,905	-200,000	0,039	-0,130
-291,891	430,827	0,041	-0,064
-290,876	-72,864	-0,071	-0,019
-289,862	380,477	0,078	0,116
-288,847	34,417	-0,097	-0,061
-287,832	-200,000	0,030	-0,117
-286,818	138,307	-0,031	-0,029
-285,803	430,869	-0,037	0,058
-284,789	-11,881	-0,159	0,075
-283,774	-68,743	0,141	-0,039
-282,759	319,038	-0,034	0,047
-281,745	800,000	-0,044	-0,096
-280,730	691,534	-0,016	0,031
-279,716	280,909	-0,059	-0,076
-278,701	-200,000	0,006	0,039
-277,686	-135,681	0,047	-0,004
-276,672	105,321	0,113	0,096
-275,657	443,932	0,095	0,151
-274,643	-200,000	0,015	0,088
-273,628	-82,950	-0,186	0,043
-272,613	197,883	0,050	0,055
-271,599	-107,320	0,153	0,024
-270,584	31,730	-0,029	-0,018
-269,570	436,153	-0,080	0,126
-268,555	67,473	0,057	-0,042
-267,540	231,812	0,056	-0,067
-266,526	61,949	-0,171	-0,123
-265,511	137,365	0,023	0,021
-264,497	800,000	-0,053	0,165
-263,482	800,000	0,023	0,052
-262,467	-120,007	0,074	-0,009
-261,453	-64,411	-0,111	0,032
-260,438	546,862	-0,067	-0,115
-259,424	308,836	-0,126	-0,170
-258,409	147,953	-0,040	-0,039
-257,395	-200,000	-0,023	-0,077
-256,380	-125,361	0,049	-0,005
-255,365	-200,000	0,013	-0,068
-254,351	356,791	0,085	-0,123
-253,336	24,242	0,060	-0,036
-252,322	57,305	-0,082	-0,058
-251,307	-200,000	0,008	0,051
-250,292	-200,000	-0,013	-0,060
-249,278	280,985	0,062	-0,081
-248,263	-200,000	-0,007	0,082
-247,249	-103,953	-0,105	0,018
-246,234	-200,000	0,002	-0,151
-245,219	-101,630	-0,085	0,015
-244,205	406,907	-0,074	0,113
-243,190	-61,679	-0,133	0,040
-242,176	-200,000	0,017	0,058
-241,161	10,823	0,143	-0,078
-240,146	124,792	0,031	-0,028
-239,132	800,000	-0,010	0,029
-238,117	-36,790	0,046	-0,018
-237,103	55,443	-0,094	0,066
-236,088	-200,000	0,008	-0,035
-235,073	-200,000	0,000	0,045
-234,059	477,720	-0,033	-0,054
-233,044	23,334	-0,139	0,082
-232,030	800,000	0,024	0,050
-231,015	175,357	-0,086	0,090
-230,000	-37,927	-0,075	0,028
-228,986	800,000	-0,021	0,065
-227,971	535,986	-0,034	0,059
-226,957	-200,000	-0,011	-0,053
-225,942	-200,000	0,006	-0,180
-224,927	800,000	0,050	-0,154
-223,913	115,181	-0,061	0,054
-222,898	280,202	0,024	0,030
-221,884	-7,378	-0,033	-0,016
-220,869	-51,968	-0,072	0,024
-219,855	268,889	0,052	-0,066
-218,840	355,320	-0,042	-0,060
-217,825	-79,868	0,061	0,015
-216,811	-137,263	-0,077	0,006
-215,796	38,271	-0,109	-0,070
-214,782	-80,908	0,136	0,032
-213,767	70,119	0,060	0,045
-212,752	-137,032	0,060	0,005
-211,738	-40,069	0,138	-0,052
-210,723	14,765	0,079	0,045
-209,709	-175,582	-0,099	-0,002
-208,694	-72,010	0,025	-0,007
-207,679	-176,120	-0,055	-0,001
-206,665	-80,836	0,174	0,041
-205,650	-200,000	0,014	0,140
-204,636	-102,126	-0,061	0,010
-203,621	800,000	-0,011	-0,024
-202,606	-200,000	0,006	-0,024
-201,592	-5,470	-0,140	0,069
-200,577	800,000	-0,025	-0,057
-199,563	-43,709	-0,021	-0,008
-198,548	578,191	-0,034	0,061
-197,533	340,165	0,036	0,051
-196,519	225,243	0,049	0,057
-195,504	151,971	-0,017	-0,017
-194,490	377,969	-0,016	0,024
-193,475	68,321	-0,022	-0,016
-192,460	509,279	-0,083	0,139
-191,446	-98,983	0,216	0,039
-190,431	-110,663	-0,086	-0,013
-189,417	-137,872	0,041	-0,003
-188,402	26,763	0,059	0,035
-187,387	68,929	-0,109	-0,080
-186,373	-102,457	-0,022	-0,004
-185,358	800,000	-0,024	0,064
-184,344	-104,994	0,047	0,008
-183,329	33,357	-0,098	-0,061
-182,315	-200,000	0,029	0,113
-181,300	28,263	-0,140	0,085
-180,285	-85,256	0,009	0,002
-179,271	-200,000	-0,000	0,020
-178,256	-177,008	0,046	-0,001
-177,242	262,021	0,077	0,096
-176,227	-200,000	-0,006	-0,028
-175,212	-101,191	-0,021	0,004
-174,198	800,000	-0,015	0,047
-173,183	350,206	-0,089	0,127
-172,169	-200,000	-0,003	0,017
-171,154	-134,953	0,059	0,005
-170,139	-125,284	0,069	-0,008
-169,125	20,448	0,135	0,078
-168,110	-200,000	0,121	-0,000
-167,096	-113,674	-0,049	-0,007
-166,081	178,052	0,080	-0,084
-165,066	128,610	-0,110	-0,101
-164,052	-200,000	-0,058	-0,190
-163,037	-67,015	-0,095	0,027
-162,023	800,000	0,012	-0,026
-161,008	-11,479	-0,135	0,064
-159,993	-89,909	0,019	-0,004
-158,979	136,186	-0,019	-0,017
-157,964	-17,711	-0,130	-0,058
-156,950	260,154	-0,049	-0,061
-155,935	388,146	0,021	-0,032
-154,920	308,015	0,039	0,053
-153,906	5,769	0,127	0,068
-152,891	289,362	-0,054	0,071
-151,877	800,000	0,016	0,042
-150,862	207,531	0,044	0,049
-149,847	57,056	0,071	0,050
-148,833	-74,129	0,116	-0,030
-147,818	-200,000	-0,003	0,028
-146,804	-64,866	-0,076	0,022
-145,789	-200,000	-0,016	0,071
-144,775	-200,000	-0,001	0,080
-143,760	-64,860	-0,052	-0,015
-142,745	-109,253	0,123	0,019
-141,731	-112,825	-0,078	0,011
-140,716	-200,000	0,009	-0,037
-139,702	109,883	0,122	0,105
-138,687	29,184	0,172	-0,104
-137,672	403,205	0,043	0,065
-136,658	800,000	-0,032	0,085
-135,643	-5,370	0,130	0,064
-134,629	-200,000	-0,016	0,063
-133,614	266,529	-0,022	0,027
-132,599	-200,000	-0,005	0,093
-131,585	560,872	-0,038	0,066
-130,570	800,000	-0,014	-0,044
-129,556	-106,341	-0,156	0,025
-128,541	303,758	0,080	-0,106
-127,526	800,000	-0,034	-0,094
-126,512	-200,000	-0,015	-0,049
-125,497	9,736	0,049	0,027
-124,483	125,093	-0,014	-0,013
-123,468	-19,392	-0,072	-0,032
-122,453	-200,000	-0,013	0,057
-121,439	221,406	-0,032	-0,037
-120,424	3,944	-0,011	-0,006
-119,410	-79,591	0,062	-0,015
