DTS Sentinel unit serial number:	SN410029Multiplexer serial number:	ORYXHardware model number:	OX2-SRSoftware version number:	ORYX F/W v4,00 Oryx Data Collector v3.7.2.0data status	okinstallation	B6 Nyhavnadifferential loss correction	single-endedforward channel	channel 2reverse channel	N/Adate	2023/12/09time	05:55:08forward acquisition time	300,00reverse acquisition time	0,00gamma	499,1914k internal	0,3142k external	0,3142temperature offset calibration	1,0000default loss term (dB/km)	0,3820temperature slope calibration	1,0000multiplexer offset coefficient	1,0000multiplexer slope coefficient	1,0000fibre end	0,00T internal ref (°C)	18,20T ext. ref 1 (°C)	2,34T ext. ref 2 (°C)	2,37length (m)	temperature (°C)	Stokes	anti-Stokes-744,400	-56,215	0,181	0,059
-743,385	-140,562	-0,232	0,018
-742,371	-200,000	0,001	0,180
-741,356	8,056	-0,274	0,152
-740,342	42,962	0,216	0,146
-739,327	-136,265	-0,246	0,021
-738,312	-120,724	0,041	0,005
-737,298	-89,466	-0,350	0,076
-736,283	-200,000	0,010	0,032
-735,269	-53,174	-0,211	0,071
-734,254	-200,000	-0,015	0,117
-733,239	-25,393	-0,476	-0,208
-732,225	-200,000	-0,009	0,065
-731,210	208,623	-0,055	0,064
-730,196	-200,000	-0,017	-0,057
-729,181	26,953	-0,103	-0,064
-728,167	220,813	-0,104	-0,124
-727,152	414,780	-0,124	-0,196
-726,137	119,791	-0,003	0,003
-725,123	-38,152	-0,208	0,081
-724,108	-200,000	-0,017	-0,075
-723,094	-200,000	-0,005	0,022
-722,079	800,000	0,031	0,098
-721,064	-45,154	-0,101	-0,037
-720,050	124,150	0,064	0,059
-719,035	387,398	-0,108	0,165
-718,021	234,315	0,024	0,029
-717,006	31,688	-0,133	-0,085
-715,991	49,636	-0,126	-0,088
-714,977	22,678	-0,151	-0,091
-713,962	-200,000	0,009	0,065
-712,948	-112,561	0,118	-0,017
-711,933	-107,933	0,079	0,013
-710,918	-110,265	-0,076	-0,012
-709,904	-198,586	-0,019	0,000
-708,889	15,726	-0,174	-0,101
-707,875	213,846	-0,092	0,108
-706,860	-200,000	-0,022	0,110
-705,845	436,678	0,064	0,104
-704,831	800,000	-0,067	0,142
-703,816	-200,000	0,009	0,072
-702,802	-122,381	-0,119	-0,014
-701,787	348,955	0,043	0,063
-700,772	52,921	-0,121	-0,085
-699,758	177,814	0,064	0,069
-698,743	-200,000	0,000	-0,066
-697,729	352,679	0,071	0,105
-696,714	77,087	-0,062	0,049
-695,699	800,000	-0,024	0,062
-694,685	-72,175	-0,139	0,038
-693,670	185,579	-0,073	-0,080
-692,656	-200,000	0,021	-0,070
-691,641	-200,000	0,004	0,085
-690,627	102,746	-0,075	0,065
-689,612	800,000	0,030	0,062
-688,597	-200,000	0,016	-0,079
-687,583	-57,320	-0,167	-0,054
-686,568	256,150	0,064	0,081
-685,554	256,116	-0,023	0,029
-684,539	-200,000	-0,018	0,092
-683,524	-200,000	-0,022	0,245
-682,510	800,000	0,027	-0,087
-681,495	261,520	0,093	0,119
-680,481	378,761	-0,080	-0,121
-679,466	-20,307	-0,057	0,026
-678,451	3,112	-0,160	-0,086
-677,437	-200,000	-0,049	0,183
-676,422	431,395	0,039	0,063
-675,408	42,567	0,164	0,110
-674,393	111,090	-0,120	-0,107
-673,378	-200,000	-0,020	-0,178
-672,364	108,272	0,045	0,039
-671,349	394,504	-0,091	-0,141
-670,335	800,000	-0,024	-0,063
-669,320	800,000	-0,055	0,161
-668,305	-200,000	0,007	-0,107
-667,291	-8,290	-0,118	0,058
-666,276	-200,000	0,029	0,116
-665,262	-200,000	-0,005	0,096
-664,247	-200,000	0,000	0,113
-663,232	88,243	-0,073	0,060
-662,218	-102,513	-0,051	0,009
-661,203	-129,922	-0,118	0,012
-660,189	-31,910	-0,099	-0,041
-659,174	-71,851	0,056	0,015
-658,159	91,177	-0,069	0,057
-657,145	32,402	-0,099	-0,063
-656,130	182,237	-0,083	-0,091
-655,116	309,080	0,046	0,064
-654,101	-175,797	0,062	0,001
-653,086	-147,305	0,154	0,010
-652,072	-200,000	0,001	0,094
-651,057	274,562	-0,098	-0,128
-650,043	-123,080	0,039	0,005
-649,028	800,000	0,009	0,023
-648,014	129,076	0,086	0,081
-646,999	-140,759	-0,152	-0,011
-645,984	538,153	0,069	-0,122
-644,970	-200,000	-0,017	-0,125
-643,955	-26,689	-0,081	0,035
-642,941	251,023	-0,164	0,207
-641,926	-112,326	0,063	-0,009
-640,911	800,000	0,037	-0,091
-639,897	309,988	0,056	-0,077
-638,882	-200,000	0,014	0,050
-637,868	783,708	0,054	-0,110
-636,853	196,284	-0,080	-0,089
-635,838	85,646	0,054	0,044
-634,824	-80,188	0,186	-0,046
-633,809	-200,000	-0,014	0,184
-632,795	168,027	-0,099	0,104
-631,780	121,295	0,017	-0,016
-630,765	-28,250	-0,121	-0,051
-629,751	-118,289	-0,206	-0,027
-628,736	-200,000	0,024	-0,118
-627,722	-200,000	0,003	-0,097
-626,707	-135,885	-0,029	-0,002
-625,692	-84,445	0,031	0,007
-624,678	-36,555	-0,062	0,025
-623,663	-200,000	-0,013	-0,146
-622,649	170,924	-0,024	-0,026
-621,634	60,543	0,073	-0,053
-620,619	-97,684	-0,039	-0,007
-619,605	-200,000	-0,006	0,025
-618,590	800,000	0,028	0,059
-617,576	800,000	-0,034	-0,098
-616,561	-122,782	-0,067	0,008
-615,546	315,924	-0,033	0,046
-614,532	800,000	0,021	0,056
-613,517	205,925	0,050	-0,058
-612,503	-69,811	-0,221	0,062
-611,488	-200,000	0,006	0,021
-610,474	-155,922	0,085	0,004
-609,459	165,936	0,120	0,125
-608,444	-57,624	-0,075	-0,024
-607,430	665,169	0,065	-0,124
-606,415	-91,857	-0,070	0,015
-605,401	665,398	-0,055	0,105
-604,386	354,224	0,008	0,011
-603,371	183,195	0,031	-0,034
-602,357	-88,165	0,131	-0,029
-601,342	118,447	0,120	-0,109
-600,328	289,489	-0,087	-0,117
-599,313	800,000	-0,034	-0,080
-598,298	274,553	0,073	-0,096
-597,284	-166,829	0,113	0,003
-596,269	286,426	-0,061	-0,081
-595,255	180,547	-0,022	-0,024
-594,240	-90,837	0,040	0,008
-593,225	195,001	0,050	-0,056
-592,211	92,097	0,127	-0,106
-591,196	-200,000	-0,000	0,050
-590,182	-93,158	-0,027	-0,005
-589,167	-200,000	-0,034	0,142
-588,152	-200,000	0,007	-0,031
-587,138	237,332	0,048	0,059
-586,123	-140,293	-0,086	-0,007
-585,109	165,317	-0,070	-0,073
-584,094	800,000	-0,035	0,107
-583,079	-200,000	-0,014	0,073
-582,065	-124,873	0,089	-0,010
-581,050	168,712	-0,071	-0,074
-580,036	314,529	0,013	-0,018
-579,021	9,864	-0,088	0,049
-578,006	38,720	-0,088	0,058
-576,992	-182,604	0,058	0,001
-575,977	-53,033	0,074	0,025
-574,963	-200,000	0,019	0,142
-573,948	-111,887	0,098	0,014
-572,934	-200,000	0,002	0,086
-571,919	-200,000	-0,007	-0,050
-570,904	-1,247	-0,089	-0,046
-569,890	16,927	0,150	0,087
-568,875	458,427	-0,013	0,021
-567,861	800,000	-0,014	0,041
-566,846	800,000	-0,012	-0,026
-565,831	405,555	-0,009	-0,014
-564,817	494,801	-0,051	-0,087
-563,802	800,000	0,027	-0,083
-562,788	23,432	0,065	-0,039
-561,773	595,256	-0,023	0,041
-560,758	-117,800	0,060	0,008
-559,744	2,047	0,061	-0,032
-558,729	-97,624	0,011	0,002
-557,715	117,862	0,030	0,027
-556,700	-118,715	-0,041	-0,005
-555,685	486,515	0,108	-0,182
-554,671	154,058	-0,045	-0,046
-553,656	26,862	0,049	0,030
-552,642	106,933	-0,081	0,071
-551,627	-149,044	0,147	0,009
-550,612	-68,859	-0,107	0,030
-549,598	110,192	-0,077	-0,068
-548,583	-11,165	0,028	0,014
-547,569	712,045	-0,046	-0,089
-546,554	-200,000	0,021	0,068
-545,539	380,177	-0,038	-0,057
-544,525	-200,000	-0,006	-0,052
-543,510	-200,000	-0,012	0,062
-542,496	1,135	-0,056	-0,029
-541,481	-200,000	-0,010	-0,077
-540,466	-200,000	0,005	-0,058
-539,452	-200,000	-0,015	0,117
-538,437	136,546	-0,005	0,005
-537,423	155,314	-0,085	0,086
-536,408	-200,000	0,000	-0,077
-535,393	-3,828	-0,094	-0,048
-534,379	-200,000	-0,006	-0,054
-533,364	800,000	0,024	0,063
-532,350	16,802	-0,153	-0,089
-531,335	571,155	0,016	0,028
-530,321	677,472	0,052	0,100
-529,306	-60,483	-0,131	0,041
-528,291	-200,000	0,001	-0,059
-527,277	-117,245	0,145	-0,019
-526,262	-25,997	-0,127	0,055
-525,248	-200,000	0,017	-0,089
-524,233	295,416	0,060	-0,081
-523,218	800,000	-0,026	0,057
-522,204	208,384	0,027	0,031
-521,189	398,261	0,039	0,060
-520,175	560,211	0,031	0,055
-519,160	-177,154	-0,101	-0,002
-518,145	-78,815	0,076	-0,019
-517,131	601,533	0,015	-0,027
-516,116	-103,198	-0,063	0,011
-515,102	-200,000	-0,004	0,106
-514,087	363,337	-0,057	-0,084
-513,072	800,000	-0,020	-0,051
-512,058	800,000	0,065	-0,161
-511,043	-68,914	0,145	0,041
-510,029	-36,966	0,010	0,004
-509,014	800,000	-0,017	-0,053
-507,999	-6,820	-0,083	0,041
-506,985	43,928	-0,066	-0,044
-505,970	-200,000	-0,001	0,058
-504,956	201,445	-0,060	-0,068
-503,941	-200,000	0,022	-0,093
-502,926	436,841	0,110	-0,176
-501,912	62,105	-0,004	-0,003
-500,897	322,528	0,048	0,067
-499,883	-13,351	0,133	-0,063
-498,868	173,544	0,010	-0,010
-497,853	-200,000	-0,008	0,070
-496,839	-200,000	-0,024	-0,088
-495,824	-200,000	-0,007	0,084
-494,810	-76,637	0,029	0,007
-493,795	-146,842	0,036	0,002
-492,781	188,028	-0,018	0,020
-491,766	-200,000	0,004	-0,116
-490,751	-200,000	-0,023	-0,129
-489,737	-200,000	0,003	-0,082
-488,722	289,741	0,024	-0,032
-487,708	800,000	0,015	-0,045
-486,693	800,000	0,029	0,060
-485,678	-85,061	-0,100	0,023
-484,664	156,464	0,043	-0,044
-483,649	616,738	-0,055	-0,101
-482,635	-200,000	0,000	0,018
-481,620	163,753	0,052	0,054
-480,605	187,571	-0,122	0,134
-479,591	37,101	0,098	-0,064
-478,576	800,000	-0,035	-0,077
-477,562	-134,573	0,128	0,011
-476,547	-18,967	-0,167	-0,076
-475,532	-49,994	0,143	0,049
-474,518	528,061	-0,018	0,032
-473,503	-40,708	0,115	-0,044
-472,489	800,000	0,055	-0,142
-471,474	457,071	-0,063	-0,103
-470,459	274,929	-0,054	-0,071
-469,445	-200,000	0,001	-0,122
-468,430	-7,415	0,018	0,009
-467,416	800,000	-0,018	0,038
-466,401	-39,576	0,129	0,049
-465,386	-200,000	-0,019	0,237
-464,372	233,568	-0,053	-0,065
-463,357	-176,782	-0,018	0,000
-462,343	145,915	0,091	0,089
-461,328	40,767	-0,125	-0,082
-460,313	73,614	-0,067	-0,051
-459,299	767,011	0,048	0,096
-458,284	250,523	0,053	0,066
-457,270	-200,000	-0,016	0,180
-456,255	-116,429	0,026	-0,004
-455,241	-200,000	0,024	-0,085
-454,226	-200,000	-0,001	0,044
-453,211	59,623	0,052	0,038
-452,197	89,463	0,049	-0,040
-451,182	-200,000	0,022	0,101
-450,168	1,532	-0,038	0,020
-449,153	-34,921	-0,072	-0,029
-448,138	66,134	-0,059	-0,044
-447,124	800,000	-0,016	-0,052
-446,109	-200,000	-0,022	0,124
-445,095	800,000	0,016	0,046
-444,080	-13,151	0,162	-0,077
-443,065	28,186	0,035	0,021
-442,051	800,000	-0,054	-0,114
-441,036	800,000	-0,055	0,173
-440,022	426,672	-0,070	0,110
-439,007	800,000	-0,033	0,093
-437,992	315,553	0,029	-0,041
-436,978	535,492	0,034	0,059
-435,963	507,706	0,042	-0,071
-434,949	348,003	0,009	0,013
-433,934	-116,790	-0,082	-0,011
-432,919	-89,619	0,037	0,008
-431,905	42,308	0,163	-0,108
-430,890	800,000	0,029	-0,089
-429,876	168,620	0,105	0,110
-428,861	-114,428	0,057	0,008
-427,846	179,700	-0,044	-0,048
-426,832	305,722	-0,016	-0,022
-425,817	800,000	-0,020	0,054
-424,803	800,000	0,020	0,049
-423,788	-200,000	-0,018	0,088
-422,773	-200,000	-0,009	0,052
-421,759	-126,442	0,084	-0,009
-420,744	313,602	0,032	-0,045
-419,730	332,726	-0,098	-0,138
-418,715	800,000	0,017	0,039
-417,701	169,153	0,031	0,033
-416,686	-200,000	-0,008	0,063
-415,671	-119,409	0,136	-0,017
-414,657	222,574	-0,063	0,074
-413,642	-82,334	-0,096	0,023
-412,628	148,074	0,128	-0,127
-411,613	16,080	-0,060	-0,034
-410,598	800,000	-0,040	-0,110
-409,584	7,273	-0,053	-0,029
-408,569	-23,164	0,096	0,042
-407,555	-200,000	0,015	0,166
-406,540	-200,000	-0,005	-0,116
-405,525	118,903	-0,072	0,065
-404,511	-200,000	-0,001	0,044
-403,496	-200,000	-0,029	-0,131
-402,482	74,979	-0,021	0,016
-401,467	-44,953	-0,116	0,042
-400,452	157,429	0,077	0,078
-399,438	-200,000	0,002	-0,014
-398,423	602,520	-0,023	0,043
-397,409	800,000	-0,059	0,160
-396,394	-200,000	-0,007	0,039
-395,379	35,170	0,013	0,008
-394,365	-76,745	0,025	-0,006
-393,350	25,451	0,055	-0,034
-392,336	800,000	0,036	0,081
-391,321	245,697	-0,075	-0,093
-390,306	52,018	0,105	-0,073
-389,292	-200,000	-0,027	-0,090
-388,277	23,328	0,054	-0,033
-387,263	-73,715	0,019	0,005
-386,248	135,249	-0,174	0,165
-385,233	-22,917	0,049	-0,022
-384,219	800,000	-0,013	-0,032
-383,204	-200,000	0,011	0,091
-382,190	-200,000	-0,012	0,097
-381,175	800,000	-0,007	-0,015
-380,160	-20,406	0,121	0,054
-379,146	-186,977	0,036	0,000
-378,131	127,163	0,060	0,056
-377,117	47,850	-0,040	-0,027
-376,102	-49,634	-0,021	0,007
-375,088	264,144	0,034	-0,044
-374,073	800,000	-0,019	-0,052
-373,058	-6,815	0,052	-0,026
-372,044	14,893	-0,067	0,038
-371,029	9,444	-0,032	0,017
-370,015	-18,576	0,145	0,066
-369,000	-90,147	-0,046	-0,010
-367,985	735,632	-0,050	-0,098
-366,971	690,149	-0,007	0,013
-365,956	508,406	0,043	0,073
-364,942	-72,385	0,163	0,044
-363,927	-200,000	-0,042	-0,000
-362,912	38,537	0,034	0,022
-361,898	-200,000	-0,029	-0,102
-360,883	198,525	-0,048	-0,054
-359,869	-28,347	-0,097	-0,040
-358,854	-200,000	-0,038	-0,157
-357,839	249,195	0,011	-0,013
-356,825	-165,736	0,102	0,003
-355,810	-145,281	-0,036	-0,002
-354,796	-119,297	0,050	-0,006
-353,781	-43,517	-0,067	0,025
-352,766	-200,000	-0,005	-0,030
-351,752	-68,230	-0,058	-0,016
-350,737	-28,144	-0,095	-0,040
-349,723	800,000	0,026	0,069
-348,708	-23,372	0,032	-0,014
-347,693	-26,487	-0,066	-0,028
-346,679	4,129	-0,082	0,044
-345,664	64,153	-0,058	-0,043
-344,650	800,000	0,031	0,073
-343,635	-41,671	-0,039	0,015
-342,620	-7,508	-0,041	-0,020
-341,606	-200,000	-0,040	0,162
-340,591	-180,541	-0,079	-0,001
-339,577	-200,000	-0,034	-0,132
-338,562	800,000	-0,023	0,050
-337,548	-200,000	0,001	-0,008
-336,533	-200,000	0,007	0,114
-335,518	-200,000	-0,032	0,190
-334,504	800,000	0,056	-0,136
-333,489	-85,278	-0,174	-0,039
-332,475	-99,737	-0,204	-0,037
-331,460	-60,953	-0,148	-0,045
-330,445	800,000	0,007	-0,021
-329,431	-75,448	-0,057	0,015
-328,416	-89,867	-0,088	-0,019
-327,402	-200,000	0,042	0,143
-326,387	-200,000	0,015	0,094
-325,372	-139,414	-0,049	0,004
-324,358	-14,431	-0,206	-0,096
-323,343	-77,194	0,100	0,025
-322,329	25,612	-0,063	-0,038
-321,314	800,000	0,038	0,091
-320,299	-200,000	-0,003	0,124
-319,285	-200,000	-0,009	0,103
-318,270	-57,967	-0,077	-0,024
-317,256	-59,701	-0,152	-0,047
-316,241	-93,157	0,050	-0,010
-315,226	-194,329	0,095	0,001
-314,212	-90,915	0,099	-0,021
-313,197	-197,185	0,047	-0,000
-312,183	-71,573	0,185	0,050
-311,168	4,535	0,089	0,047
-310,153	800,000	-0,019	-0,058
-309,139	-200,000	-0,003	-0,096
-308,124	-12,481	-0,040	-0,019
-307,110	347,537	0,084	0,121
-306,095	191,282	0,119	0,131
-305,080	800,000	-0,013	0,037
-304,066	440,441	0,031	0,049
-303,051	-42,783	-0,138	0,051
-302,037	177,675	-0,060	-0,064
-301,022	800,000	0,043	0,096
-300,008	-200,000	0,043	0,160
-298,993	-85,713	-0,144	0,032
-297,978	-136,566	0,101	-0,008
-296,964	31,121	-0,087	-0,054
-295,949	297,126	-0,116	-0,155
-294,935	449,339	-0,036	-0,057
-293,920	800,000	0,038	-0,085
-292,905	-142,589	-0,120	0,008
-291,891	227,504	0,026	0,030
-290,876	-200,000	-0,023	-0,102
-289,862	173,063	-0,040	0,042
-288,847	223,721	-0,063	-0,075
-287,832	80,762	-0,100	0,079
-286,818	-5,912	0,060	-0,030
-285,803	271,815	-0,035	0,045
-284,789	-58,785	0,146	-0,046
-283,774	246,608	-0,074	-0,091
-282,759	331,227	0,072	-0,101
-281,745	-52,505	0,080	0,027
-280,730	348,432	0,059	0,086
-279,716	41,286	-0,129	0,085
-278,701	142,172	0,050	0,049
-277,686	-87,262	0,192	-0,042
-276,672	-200,000	-0,001	-0,010
-275,657	-200,000	0,005	0,165
-274,643	-64,789	-0,052	0,015
-273,628	393,588	0,032	-0,048
-272,613	194,206	0,057	0,063
-271,599	-13,961	-0,056	0,026
-270,584	800,000	-0,017	-0,048
-269,570	800,000	0,038	0,089
-268,555	-128,918	0,044	0,004
-267,540	-101,471	-0,146	0,026
-266,526	-200,000	0,038	-0,143
-265,511	-113,621	0,041	0,006
-264,497	-200,000	-0,032	-0,000
-263,482	32,147	-0,020	-0,013
-262,467	120,840	-0,059	0,053
-261,453	23,283	-0,067	0,040
-260,438	137,234	-0,095	-0,091
-259,424	-200,000	0,027	0,093
-258,409	-200,000	-0,006	-0,043
-257,395	-13,008	0,062	-0,029
-256,380	800,000	-0,032	-0,091
-255,365	56,636	0,161	-0,114
-254,351	-8,707	0,078	-0,038
-253,336	-180,201	-0,154	0,002
-252,322	-10,610	-0,018	0,009
-251,307	57,084	0,066	0,047
-250,292	-200,000	-0,003	-0,092
-249,278	-200,000	0,013	-0,091
-248,263	-34,111	0,100	-0,040
-247,249	800,000	0,063	0,200
-246,234	-200,000	0,009	0,120
-245,219	-131,219	0,076	-0,007
-244,205	-44,507	0,112	-0,041
-243,190	-200,000	0,005	-0,106
-242,176	19,748	0,142	0,083
-241,161	800,000	0,023	0,066
-240,146	800,000	0,035	-0,078
-239,132	-200,000	0,005	0,057
-238,117	-200,000	0,005	-0,019
-237,103	757,486	0,045	-0,089
-236,088	-142,853	0,026	0,002
-235,073	800,000	0,024	0,077
-234,059	563,478	0,023	-0,041
-233,044	800,000	0,019	-0,045
-232,030	-200,000	0,031	0,104
-231,015	-63,617	0,102	0,030
-230,000	800,000	-0,011	0,022
-228,986	-98,518	0,092	0,017
-227,971	-200,000	-0,034	-0,116
-226,957	-200,000	-0,027	0,121
-225,942	-200,000	-0,009	-0,091
-224,927	-200,000	-0,004	-0,131
-223,913	-150,313	-0,067	0,004
-222,898	-114,504	0,032	0,004
-221,884	-200,000	-0,009	0,072
-220,869	800,000	0,039	-0,089
-219,855	-200,000	0,005	0,199
-218,840	573,417	-0,046	0,082
-217,825	800,000	-0,057	-0,126
-216,811	800,000	0,031	0,097
-215,796	234,263	-0,062	-0,074
-214,782	163,708	0,060	-0,062
-213,767	480,460	-0,070	-0,116
-212,752	800,000	-0,027	0,075
-211,738	-200,000	0,032	0,146
-210,723	70,139	0,051	0,038
-209,709	64,298	0,107	0,078
-208,694	800,000	0,015	0,047
-207,679	-57,505	-0,117	0,037
-206,665	655,931	-0,054	-0,102
-205,650	800,000	-0,027	-0,083
-204,636	394,664	0,049	0,075
-203,621	444,629	-0,021	-0,033
-202,606	-200,000	-0,002	0,023
-201,592	-200,000	0,002	-0,090
-200,577	800,000	-0,035	-0,082
-199,563	-11,661	0,107	0,051
-198,548	2,190	0,056	0,029
-197,533	372,938	-0,079	0,117
-196,519	-147,163	0,066	0,004
-195,504	-200,000	-0,010	0,125
-194,490	-3,425	-0,100	-0,050
-193,475	-200,000	0,009	-0,082
-192,460	-200,000	0,007	-0,042
-191,446	-168,551	0,072	-0,002
-190,431	800,000	-0,015	0,036
-189,417	249,381	-0,020	0,025
-188,402	-200,000	-0,017	-0,158
-187,387	26,184	-0,037	-0,022
-186,373	321,197	0,030	-0,042
-185,358	-22,522	0,065	-0,028
-184,344	-68,688	0,057	0,016
-183,329	365,020	-0,064	-0,094
-182,315	178,050	-0,090	0,095
-181,300	-80,186	0,020	0,005
-180,285	368,093	-0,041	-0,061
-179,271	-123,402	-0,116	0,013
-178,256	-40,594	-0,108	0,040
-177,242	-7,024	0,124	-0,061
-176,227	-164,699	0,103	-0,003
-175,212	800,000	0,030	0,066
-174,198	21,969	0,063	0,037
-173,183	800,000	-0,051	-0,137
-172,169	-61,050	0,123	-0,037
-171,154	-61,970	-0,041	0,012
-170,139	428,103	0,058	0,090
-169,125	-136,460	0,114	-0,009
-168,110	-200,000	0,038	0,146
-167,096	-200,000	-0,004	0,012
-166,081	-93,308	-0,125	-0,025
-165,066	-200,000	-0,041	-0,219
-164,052	-0,996	-0,048	-0,025
-163,037	-200,000	0,013	0,056
-162,023	3,506	-0,053	0,028
-161,008	700,659	-0,033	-0,063
-159,993	-45,124	0,078	0,028
-158,979	-200,000	0,026	0,177
-157,964	800,000	-0,038	0,106
-156,950	256,916	-0,026	-0,032
-155,935	125,947	0,061	0,056
-154,920	356,837	-0,041	0,059
-153,906	-200,000	0,035	0,149
-152,891	385,015	-0,059	0,088
-151,877	-200,000	0,007	-0,034
-150,862	20,608	-0,093	-0,054
-149,847	-89,810	-0,116	0,024
-148,833	99,606	0,080	0,067
-147,818	-118,103	-0,072	0,009
-146,804	-200,000	0,017	0,102
-145,789	724,697	-0,064	0,125
-144,775	800,000	-0,031	0,097
-143,760	-200,000	0,005	-0,033
-142,745	665,767	0,080	0,151
-141,731	174,505	0,141	-0,148
-140,716	-176,004	-0,052	-0,001
-139,702	-200,000	-0,028	0,091
-138,687	48,195	0,130	0,088
-137,672	-78,966	0,039	0,010
-136,658	800,000	-0,027	-0,076
-135,643	800,000	0,012	0,025
-134,629	-200,000	0,002	-0,044
-133,614	-200,000	-0,026	0,099
-132,599	43,856	0,131	0,086
-131,585	-116,600	-0,165	0,022
-130,570	728,094	0,051	-0,098
-129,556	785,159	0,030	-0,060
-128,541	-200,000	-0,009	-0,090
-127,526	-145,826	0,105	-0,007
-126,512	180,892	0,059	0,063
-125,497	-16,646	0,069	-0,031
-124,483	25,288	0,040	0,024
-123,468	51,665	0,049	-0,034
-122,453	283,043	0,047	-0,061
-121,439	-126,176	0,088	0,009
-120,424	800,000	0,046	-0,122
-119,410	-200,000	-0,003	0,073
