DTS Sentinel unit serial number:	SN410029Multiplexer serial number:	ORYXHardware model number:	OX2-SRSoftware version number:	ORYX F/W v4,00 Oryx Data Collector v3.7.2.0data status	okinstallation	B6 Nyhavnadifferential loss correction	single-endedforward channel	channel 2reverse channel	N/Adate	2023/12/08time	14:15:08forward acquisition time	300,00reverse acquisition time	0,00gamma	499,1914k internal	0,3159k external	0,3159temperature offset calibration	1,0000default loss term (dB/km)	0,3820temperature slope calibration	1,0000multiplexer offset coefficient	1,0000multiplexer slope coefficient	1,0000fibre end	0,00T internal ref (°C)	15,05T ext. ref 1 (°C)	-1,52T ext. ref 2 (°C)	-1,52length (m)	temperature (°C)	Stokes	anti-Stokes-744,400	-53,624	0,192	-0,064
-743,385	-115,785	-0,308	-0,042
-742,371	-125,175	0,239	0,027
-741,356	-200,000	-0,240	0,000
-740,342	89,889	0,120	0,099
-739,327	-38,909	-0,266	-0,103
-738,312	800,000	-0,033	-0,095
-737,298	-92,981	-0,297	-0,060
-736,283	-99,008	0,074	-0,014
-735,269	-155,541	-0,197	0,009
-734,254	-117,066	0,075	-0,010
-733,239	-129,144	-0,550	-0,056
-732,225	-146,970	0,271	-0,017
-731,210	280,919	-0,094	0,124
-730,196	800,000	-0,042	-0,121
-729,181	-160,739	-0,070	-0,003
-728,167	-6,063	-0,222	0,111
-727,152	-154,786	-0,070	0,003
-726,137	-95,060	-0,104	0,020
-725,123	-36,922	-0,035	0,014
-724,108	-200,000	0,013	-0,070
-723,094	800,000	-0,027	-0,066
-722,079	800,000	0,016	-0,038
-721,064	103,024	0,071	-0,062
-720,050	-97,869	0,060	-0,011
-719,035	-88,736	0,138	-0,030
-718,021	-200,000	0,003	0,039
-717,006	-76,477	-0,187	-0,048
-715,991	187,411	-0,076	-0,083
-714,977	-26,088	0,130	-0,056
-713,962	-200,000	-0,021	-0,191
-712,948	-34,344	-0,169	0,068
-711,933	-110,459	-0,102	-0,015
-710,918	800,000	-0,071	-0,168
-709,904	138,692	-0,087	0,085
-708,889	40,070	-0,071	0,047
-707,875	-200,000	-0,031	-0,120
-706,860	-17,130	0,161	-0,074
-705,845	-159,780	-0,184	0,007
-704,831	-51,552	0,143	-0,049
-703,816	-200,000	-0,006	0,020
-702,802	-200,000	0,010	-0,062
-701,787	70,637	-0,040	0,031
-700,772	-200,000	-0,006	-0,056
-699,758	236,133	-0,030	-0,036
-698,743	180,045	0,083	-0,089
-697,729	121,561	-0,101	0,093
-696,714	514,968	-0,042	-0,072
-695,699	800,000	-0,032	-0,075
-694,685	-200,000	-0,003	0,036
-693,670	-39,853	-0,074	0,028
-692,656	-200,000	0,007	0,127
-691,641	-119,219	-0,019	0,002
-690,627	-200,000	-0,006	0,057
-689,612	-200,000	-0,012	-0,051
-688,597	330,293	-0,027	-0,038
-687,583	800,000	0,023	-0,065
-686,568	800,000	-0,075	-0,156
-685,554	-200,000	-0,004	0,070
-684,539	-9,511	0,116	-0,057
-683,524	74,340	-0,114	-0,088
-682,510	-200,000	-0,025	-0,103
-681,495	-16,108	-0,131	0,061
-680,481	195,143	-0,015	0,016
-679,466	365,688	-0,033	-0,049
-678,451	222,530	0,107	-0,127
-677,437	-55,294	-0,128	0,042
-676,422	800,000	0,074	0,197
-675,408	243,092	-0,049	-0,060
-674,393	-200,000	-0,012	0,072
-673,378	17,807	-0,078	-0,045
-672,364	-200,000	0,004	-0,017
-671,349	-176,863	-0,052	0,001
-670,335	-75,630	0,219	-0,057
-669,320	182,732	-0,072	-0,078
-668,305	-200,000	0,017	0,096
-667,291	-109,332	0,116	-0,018
-666,276	71,559	0,050	0,038
-665,262	511,770	-0,031	0,053
-664,247	-200,000	-0,014	-0,106
-663,232	-83,032	-0,042	-0,010
-662,218	51,192	0,065	0,045
-661,203	800,000	0,030	0,065
-660,189	10,128	-0,047	0,026
-659,174	-10,385	0,062	-0,030
-658,159	107,107	0,046	0,041
-657,145	-200,000	0,008	0,058
-656,130	800,000	0,094	0,191
-655,116	543,002	-0,019	-0,033
-654,101	594,671	-0,036	0,066
-653,086	800,000	0,020	-0,043
-652,072	203,339	0,031	-0,036
-651,057	511,451	0,056	-0,096
-650,043	-200,000	0,015	-0,102
-649,028	-200,000	0,001	-0,103
-648,014	-200,000	0,002	0,019
-646,999	-200,000	-0,012	0,083
-645,984	-154,413	-0,089	-0,004
-644,970	32,896	-0,094	0,060
-643,955	212,031	-0,024	0,028
-642,941	-117,342	-0,104	-0,014
-641,926	-146,977	-0,118	-0,007
-640,911	-31,694	0,061	0,025
-639,897	-24,587	0,155	0,067
-638,882	122,919	-0,087	-0,080
-637,868	-150,389	0,053	0,003
-636,853	-200,000	0,004	-0,185
-635,838	13,971	0,161	-0,092
-634,824	-3,403	-0,006	0,003
-633,809	-111,126	-0,076	0,011
-632,795	3,630	-0,084	0,045
-631,780	-142,134	0,104	0,007
-630,765	79,728	0,090	0,071
-629,751	-200,000	-0,022	-0,098
-628,736	800,000	-0,062	-0,163
-627,722	-8,324	-0,102	-0,050
-626,707	192,486	-0,045	-0,049
-625,692	263,415	0,066	-0,085
-624,678	273,920	-0,110	-0,142
-623,663	-5,451	-0,047	-0,024
-622,649	800,000	0,039	0,098
-621,634	206,738	-0,070	0,080
-620,619	561,734	0,073	-0,130
-619,605	-200,000	0,000	-0,066
-618,590	251,000	0,004	0,004
-617,576	-45,204	0,120	0,043
-616,561	186,156	-0,085	0,093
-615,546	31,139	0,046	-0,029
-614,532	513,798	0,027	-0,046
-613,517	800,000	0,013	-0,027
-612,503	-7,402	-0,164	-0,081
-611,488	82,141	0,098	0,078
-610,474	-29,042	0,123	0,052
-609,459	41,986	0,060	0,040
-608,444	515,990	-0,141	-0,243
-607,430	-33,460	0,068	-0,028
-606,415	-200,000	0,024	-0,093
-605,401	-104,494	-0,066	-0,011
-604,386	-200,000	-0,002	0,103
-603,371	70,032	-0,010	-0,007
-602,357	-89,036	0,040	-0,009
-601,342	7,549	-0,103	0,056
-600,328	-20,288	-0,118	-0,053
-599,313	-200,000	0,018	-0,123
-598,298	-130,723	0,122	0,012
-597,284	-107,632	-0,102	0,016
-596,269	551,289	0,023	0,041
-595,255	244,885	0,082	0,101
-594,240	-114,315	-0,111	0,016
-593,225	-69,532	-0,056	-0,016
-592,211	225,435	-0,023	-0,027
-591,196	-200,000	0,005	0,203
-590,182	800,000	-0,028	-0,088
-589,167	44,356	0,043	0,029
-588,152	442,806	0,049	0,078
-587,138	46,989	0,037	-0,025
-586,123	-27,655	-0,103	0,043
-585,109	60,869	0,020	0,014
-584,094	800,000	0,020	0,053
-583,079	-1,416	0,102	0,052
-582,065	800,000	0,017	-0,047
-581,050	48,470	0,164	0,112
-580,036	-200,000	-0,036	-0,146
-579,021	-82,216	-0,133	0,031
-578,006	800,000	0,013	-0,039
-576,992	553,468	0,011	0,020
-575,977	0,779	0,134	-0,070
-574,963	-27,463	-0,040	0,017
-573,948	-54,037	-0,123	0,041
-572,934	-20,737	-0,063	-0,028
-571,919	-200,000	0,024	0,080
-570,904	800,000	-0,101	-0,239
-569,890	800,000	-0,002	-0,005
-568,875	-200,000	-0,029	-0,125
-567,861	31,690	0,024	-0,015
-566,846	-200,000	-0,005	0,053
-565,831	800,000	0,062	-0,179
-564,817	-200,000	-0,022	-0,075
-563,802	-183,172	-0,105	-0,001
-562,788	-172,905	-0,059	0,001
-561,773	316,614	-0,071	-0,099
-560,758	-116,783	0,103	-0,014
-559,744	-113,071	0,123	-0,018
-558,729	-184,683	-0,096	0,001
-557,715	800,000	0,038	-0,085
-556,700	-78,740	-0,033	-0,008
-555,685	316,428	-0,045	-0,062
-554,671	321,297	0,052	0,073
-553,656	50,196	-0,060	0,041
-552,642	800,000	0,036	0,115
-551,627	-200,000	0,002	-0,024
-550,612	-6,190	0,014	0,007
-549,598	62,489	-0,107	-0,078
-548,583	-33,470	0,092	0,037
-547,569	-200,000	0,015	0,086
-546,554	-70,459	-0,070	-0,019
-545,539	36,093	-0,143	-0,092
-544,525	-52,320	-0,068	-0,023
-543,510	94,654	-0,149	-0,124
-542,496	34,145	-0,156	-0,099
-541,481	-42,495	0,043	-0,016
-540,466	-200,000	-0,018	0,121
-539,452	-92,073	0,190	-0,039
-538,437	-200,000	0,026	0,135
-537,423	-181,735	-0,065	-0,001
-536,408	-113,851	0,054	-0,008
-535,393	-200,000	0,008	-0,080
-534,379	375,947	0,064	-0,096
-533,364	-200,000	-0,003	0,112
-532,350	-40,302	0,085	0,032
-531,335	751,918	0,028	0,056
-530,321	-200,000	-0,017	0,096
-529,306	800,000	-0,022	0,063
-528,291	-4,501	0,113	-0,057
-527,277	800,000	0,025	0,078
-526,262	-200,000	0,001	-0,011
-525,248	169,655	-0,111	0,116
-524,233	129,162	0,051	0,048
-523,218	151,015	0,094	0,094
-522,204	253,619	0,043	-0,053
-521,189	-99,878	-0,139	-0,025
-520,175	28,531	0,101	-0,062
-519,160	738,370	0,056	-0,110
-518,145	-150,346	0,115	-0,006
-517,131	28,365	-0,048	0,030
-516,116	228,729	0,053	0,064
-515,102	800,000	-0,015	0,048
-514,087	67,844	-0,066	0,049
-513,072	-4,934	0,107	0,054
-512,058	-165,904	-0,091	-0,003
-511,043	114,454	0,072	0,064
-510,029	800,000	0,035	-0,097
-509,014	-9,578	0,062	0,030
-507,999	-167,914	0,046	-0,001
-506,985	84,208	-0,025	0,020
-505,970	80,821	0,052	-0,041
-504,956	71,884	-0,115	-0,087
-503,941	13,524	0,006	-0,004
-502,926	34,836	-0,040	0,026
-501,912	241,662	0,118	0,144
-500,897	800,000	-0,014	0,042
-499,883	-12,999	0,143	-0,068
-498,868	73,323	-0,014	0,011
-497,853	-200,000	0,017	-0,101
-496,839	597,386	0,022	-0,041
-495,824	-200,000	0,002	0,023
-494,810	800,000	0,049	0,129
-493,795	-200,000	-0,006	0,125
-492,781	800,000	-0,042	-0,093
-491,766	-134,282	-0,104	0,009
-490,751	800,000	-0,037	0,074
-489,737	131,887	-0,049	-0,046
-488,722	-200,000	0,029	0,226
-487,708	-200,000	-0,003	-0,022
-486,693	-200,000	0,004	0,130
-485,678	2,545	0,076	-0,040
-484,664	-63,224	-0,076	0,023
-483,649	226,339	-0,134	-0,158
-482,635	79,916	0,063	0,050
-481,620	43,037	0,108	0,072
-480,605	-200,000	-0,026	0,129
-479,591	251,561	-0,049	-0,061
-478,576	-200,000	-0,003	-0,020
-477,562	-104,771	-0,037	0,006
-476,547	27,158	0,043	0,026
-475,532	608,447	-0,041	0,075
-474,518	800,000	0,051	0,161
-473,503	-200,000	0,006	-0,086
-472,489	-200,000	-0,005	0,087
-471,474	-200,000	-0,008	-0,058
-470,459	348,543	-0,113	-0,163
-469,445	800,000	0,020	0,063
-468,430	102,657	-0,084	-0,072
-467,416	-82,587	0,122	0,029
-466,401	109,138	0,089	0,077
-465,386	337,795	-0,030	0,042
-464,372	-200,000	-0,006	0,085
-463,357	-200,000	0,047	0,178
-462,343	212,229	0,080	0,092
-461,328	-77,765	-0,118	-0,029
-460,313	-158,904	-0,105	0,004
-459,299	-1,841	-0,119	-0,061
-458,284	27,186	0,116	0,071
-457,270	89,172	0,018	-0,015
-456,255	104,093	-0,062	-0,053
-455,241	367,774	0,046	-0,068
-454,226	-32,347	-0,040	0,016
-453,211	265,023	0,123	0,156
-452,197	-200,000	0,007	0,033
-451,182	800,000	-0,015	0,035
-450,168	574,621	0,088	-0,158
-449,153	-23,673	0,015	-0,007
-448,138	-56,978	-0,045	0,014
-447,124	-200,000	0,002	0,050
-446,109	286,735	-0,068	0,089
-445,095	70,450	0,023	0,017
-444,080	-164,331	0,052	0,002
-443,065	-61,500	-0,003	0,001
-442,051	800,000	-0,040	-0,099
-441,036	97,703	0,028	-0,023
-440,022	177,899	0,070	0,075
-439,007	-200,000	0,004	0,113
-437,992	-200,000	-0,030	0,113
-436,978	800,000	-0,035	0,073
-435,963	-129,610	0,049	0,005
-434,949	-200,000	0,004	0,126
-433,934	-200,000	0,004	0,028
-432,919	416,024	0,053	0,082
-431,905	73,571	0,076	-0,058
-430,890	800,000	0,032	0,088
-429,876	800,000	0,056	-0,118
-428,861	305,560	-0,088	0,120
-427,846	645,949	0,029	-0,055
-426,832	800,000	-0,023	-0,070
-425,817	-2,844	-0,101	0,051
-424,803	-200,000	0,024	-0,143
-423,788	630,118	0,011	0,020
-422,773	-199,027	0,174	0,001
-421,759	485,775	-0,047	0,079
-420,744	-39,470	-0,135	0,051
-419,730	610,396	-0,080	-0,147
-418,715	-200,000	0,001	-0,098
-417,701	800,000	0,051	0,154
-416,686	371,918	-0,024	0,035
-415,671	-149,893	-0,049	-0,003
-414,657	-80,778	0,076	-0,018
-413,642	800,000	-0,018	-0,045
-412,628	-91,358	-0,037	0,008
-411,613	14,599	0,053	0,030
-410,598	719,957	-0,029	0,055
-409,584	674,365	0,050	0,094
-408,569	-82,941	0,092	-0,021
-407,555	101,771	-0,067	0,057
-406,540	251,404	-0,040	0,050
-405,525	-180,507	-0,068	-0,001
-404,511	800,000	0,031	-0,086
-403,496	-110,909	-0,094	-0,014
-402,482	40,580	-0,067	-0,044
-401,467	-200,000	0,028	0,168
-400,452	51,815	-0,074	0,051
-399,438	-200,000	-0,011	0,058
-398,423	202,595	0,023	-0,026
-397,409	800,000	0,011	-0,033
-396,394	-200,000	0,043	-0,186
-395,379	198,755	0,084	-0,094
-394,365	-45,361	0,038	0,014
-393,350	-200,000	0,004	0,088
-392,336	324,607	-0,054	0,075
-391,321	42,960	0,160	-0,106
-390,306	32,076	0,027	0,017
-389,292	-163,156	0,020	-0,001
-388,277	33,251	0,026	-0,017
-387,263	60,016	0,099	-0,071
-386,248	208,854	-0,037	-0,042
-385,233	-134,087	0,138	-0,012
-384,219	113,457	-0,035	0,031
-383,204	742,786	-0,058	0,115
-382,190	-137,972	0,037	0,003
-381,175	800,000	-0,026	0,058
-380,160	-200,000	-0,001	0,012
-379,146	-176,793	0,130	0,002
-378,131	790,845	-0,027	-0,054
-377,117	-99,624	-0,149	0,027
-376,102	-200,000	0,011	-0,110
-375,088	800,000	-0,030	-0,086
-374,073	162,040	-0,039	-0,040
-373,058	281,480	0,033	-0,042
-372,044	-52,329	-0,078	-0,026
-371,029	63,361	0,085	0,062
-370,015	800,000	-0,059	-0,135
-369,000	-200,000	0,004	-0,095
-367,985	-73,038	-0,097	0,026
-366,971	-200,000	0,014	-0,083
-365,956	-129,415	-0,116	-0,012
-364,942	-157,187	0,097	0,004
-363,927	-139,940	0,150	-0,011
-362,912	-200,000	0,003	-0,027
-361,898	-200,000	-0,006	0,070
-360,883	87,976	0,042	-0,033
-359,869	-110,346	-0,021	-0,003
-358,854	-97,037	-0,145	0,027
-357,839	-200,000	0,019	-0,063
-356,825	208,711	0,043	-0,049
-355,810	-200,000	-0,022	-0,092
-354,796	-200,000	-0,010	-0,187
-353,781	583,981	0,033	0,060
-352,766	-93,779	-0,045	0,009
-351,752	-144,765	0,176	-0,012
-350,737	-4,604	-0,085	0,042
-349,723	181,022	0,024	0,026
-348,708	-49,262	0,062	0,021
-347,693	451,038	-0,105	0,169
-346,679	191,945	0,032	-0,036
-345,664	-200,000	-0,005	-0,025
-344,650	-5,324	0,086	-0,043
-343,635	-200,000	0,004	0,031
-342,620	192,143	0,018	0,020
-341,606	-7,633	0,121	-0,059
-340,591	15,499	-0,066	-0,037
-339,577	-133,535	-0,124	0,011
-338,562	156,707	0,026	-0,026
-337,548	-19,423	-0,093	0,042
-336,533	-66,470	0,182	0,052
-335,518	-200,000	-0,057	0,193
-334,504	-3,848	0,059	0,030
-333,489	231,615	0,073	-0,087
-332,475	187,831	0,087	-0,094
-331,460	359,939	0,080	-0,116
-330,445	227,132	-0,120	-0,141
-329,431	-50,945	0,146	0,050
-328,416	800,000	-0,045	0,111
-327,402	-105,340	-0,006	-0,001
-326,387	59,351	0,066	0,047
-325,372	522,310	-0,052	0,088
-324,358	-200,000	0,001	-0,085
-323,343	-121,523	-0,083	0,010
-322,329	562,401	0,014	0,024
-321,314	-200,000	-0,005	0,077
-320,299	-21,576	0,127	0,056
-319,285	257,415	-0,035	-0,044
-318,270	166,105	0,054	-0,056
-317,256	499,333	0,105	-0,175
-316,241	-200,000	0,015	0,048
-315,226	44,963	0,110	-0,074
-314,212	800,000	0,013	0,030
-313,197	564,899	0,091	-0,160
-312,183	633,518	-0,000	-0,001
-311,168	531,906	0,040	0,068
-310,153	537,999	0,031	-0,054
-309,139	-200,000	0,009	-0,104
-308,124	800,000	0,004	-0,011
-307,110	90,643	0,127	0,103
-306,095	800,000	0,060	0,185
-305,080	14,188	-0,066	0,037
-304,066	-0,481	-0,081	0,042
-303,051	-133,871	-0,113	0,010
-302,037	-200,000	0,010	0,049
-301,022	-59,502	0,070	-0,022
-300,008	43,159	0,037	0,025
-298,993	-122,909	0,039	0,004
-297,978	-145,406	-0,105	-0,007
-296,964	800,000	-0,042	0,112
-295,949	223,354	0,055	0,065
-294,935	-200,000	-0,013	0,052
-293,920	-200,000	-0,005	-0,113
-292,905	184,396	0,020	-0,022
-291,891	264,106	-0,030	0,038
-290,876	-25,151	0,006	0,003
-289,862	54,995	-0,077	-0,054
-288,847	-200,000	-0,013	0,046
-287,832	800,000	-0,006	0,020
-286,818	-87,772	-0,155	0,034
-285,803	800,000	0,021	-0,048
-284,789	-200,000	0,000	0,026
-283,774	-148,029	0,195	0,012
-282,759	49,262	-0,133	0,090
-281,745	-80,506	-0,219	0,052
-280,730	79,688	-0,058	0,045
-279,716	448,770	-0,008	-0,012
-278,701	-49,251	0,085	-0,029
-277,686	64,723	-0,090	0,066
-276,672	-200,000	-0,057	0,308
-275,657	-155,249	-0,027	0,001
-274,643	365,982	-0,033	-0,048
-273,628	82,822	-0,094	-0,074
-272,613	800,000	-0,035	0,091
-271,599	-51,615	0,211	-0,071
-270,584	-116,892	-0,120	-0,016
-269,570	800,000	0,051	0,113
-268,555	-106,529	0,062	0,010
-267,540	220,073	-0,069	-0,080
-266,526	800,000	0,026	-0,061
-265,511	406,471	-0,044	0,068
-264,497	800,000	-0,008	0,018
-263,482	169,072	0,033	0,034
-262,467	-200,000	0,014	0,060
-261,453	269,485	0,073	-0,093
-260,438	152,997	-0,097	-0,096
-259,424	-154,120	0,035	0,002
-258,409	-200,000	-0,001	0,040
-257,395	-15,404	0,155	0,071
-256,380	-135,667	-0,073	-0,006
-255,365	80,147	-0,077	0,060
-254,351	438,267	0,014	0,022
-253,336	-117,837	-0,040	-0,005
-252,322	-0,012	0,060	-0,031
-251,307	-44,025	0,102	0,037
-250,292	56,674	-0,052	0,037
-249,278	-36,580	-0,132	0,051
-248,263	-200,000	-0,007	0,036
-247,249	-165,952	0,058	-0,002
-246,234	-103,143	-0,027	-0,005
-245,219	-34,641	-0,074	0,029
-244,205	800,000	-0,028	-0,070
-243,190	167,719	-0,045	-0,046
-242,176	-200,000	0,027	-0,100
-241,161	-133,226	0,098	0,009
-240,146	800,000	-0,035	-0,090
-239,132	-200,000	0,027	0,121
-238,117	-168,539	0,083	-0,002
-237,103	183,262	0,064	-0,068
-236,088	95,311	-0,132	-0,109
-235,073	4,003	0,089	-0,047
-234,059	800,000	0,035	0,086
-233,044	-45,290	0,066	0,023
-232,030	-6,076	-0,121	0,059
-231,015	-95,943	-0,071	0,014
-230,000	348,263	-0,070	-0,100
-228,986	-20,576	0,095	-0,042
-227,971	-200,000	0,000	0,033
-226,957	-105,246	0,146	-0,024
-225,942	800,000	-0,029	-0,059
-224,927	245,223	-0,050	0,061
-223,913	800,000	-0,060	-0,191
-222,898	278,221	-0,119	-0,153
-221,884	665,285	-0,037	0,069
-220,869	-96,622	-0,016	0,003
-219,855	-139,836	0,086	0,006
-218,840	-4,226	0,147	-0,073
-217,825	-30,630	-0,073	0,030
-216,811	-131,122	0,103	0,010
-215,796	-72,891	-0,078	-0,021
-214,782	-200,000	0,018	0,095
-213,767	-13,002	-0,088	-0,041
-212,752	94,501	0,027	0,023
-211,738	800,000	0,031	0,070
-210,723	-91,612	-0,064	0,013
-209,709	9,542	0,080	-0,044
-208,694	140,814	-0,110	0,105
-207,679	-33,729	-0,044	-0,018
-206,665	591,302	0,089	0,158
-205,650	-68,532	-0,087	-0,024
-204,636	-5,208	0,059	-0,029
-203,621	800,000	-0,023	0,057
-202,606	-200,000	-0,019	0,100
-201,592	144,381	-0,072	-0,070
-200,577	-200,000	-0,048	-0,184
-199,563	238,826	0,097	-0,116
-198,548	-200,000	0,000	-0,129
-197,533	-55,684	0,102	0,033
-196,519	72,629	-0,011	0,008
-195,504	-78,468	0,121	-0,030
-194,490	755,561	-0,042	-0,083
-193,475	-23,943	-0,079	-0,034
-192,460	-114,460	-0,035	0,005
-191,446	95,692	0,149	-0,122
-190,431	70,550	-0,096	0,072
-189,417	-5,854	0,017	0,009
-188,402	-200,000	-0,025	0,095
-187,387	32,474	-0,124	-0,077
-186,373	43,825	-0,111	-0,073
-185,358	344,006	0,068	0,096
-184,344	489,408	-0,043	0,071
-183,329	-200,000	-0,022	0,076
-182,315	800,000	-0,050	-0,123
-181,300	87,003	-0,006	-0,005
-180,285	-60,448	-0,066	-0,020
-179,271	123,336	0,021	-0,019
-178,256	92,307	0,059	-0,048
-177,242	-137,466	-0,084	-0,007
-176,227	615,350	0,009	-0,016
-175,212	323,016	-0,045	-0,062
-174,198	-200,000	0,001	-0,150
-173,183	-162,753	0,056	-0,002
-172,169	800,000	-0,049	-0,144
-171,154	508,070	0,025	0,042
-170,139	153,976	-0,064	0,064
-169,125	-117,532	0,054	-0,007
-168,110	-122,163	0,091	0,011
-167,096	-32,845	0,030	0,012
-166,081	-200,000	0,019	-0,134
-165,066	-200,000	-0,003	-0,150
-164,052	-200,000	-0,026	0,185
-163,037	121,368	-0,119	0,107
-162,023	-200,000	0,001	0,071
-161,008	-160,111	-0,009	0,000
-159,993	272,134	0,026	-0,033
-158,979	-154,631	-0,051	0,002
-157,964	-157,295	0,065	0,003
-156,950	250,638	-0,038	-0,046
-155,935	-200,000	-0,005	0,129
-154,920	-200,000	0,005	-0,053
-153,906	-164,242	0,024	-0,001
-152,891	-62,750	0,059	-0,017
-151,877	-136,191	-0,076	-0,006
-150,862	175,598	-0,126	-0,131
-149,847	-17,475	-0,136	0,061
-148,833	218,056	0,073	0,083
-147,818	-200,000	0,003	0,177
-146,804	-105,032	0,067	-0,011
-145,789	257,041	0,093	0,116
-144,775	461,118	0,052	0,084
-143,760	-144,359	0,138	-0,009
-142,745	-200,000	0,010	0,128
-141,731	-200,000	-0,015	0,100
-140,716	-200,000	0,015	-0,056
-139,702	165,318	0,079	0,080
-138,687	800,000	-0,032	0,083
-137,672	-78,042	0,092	-0,023
-136,658	800,000	0,050	-0,108
-135,643	502,556	-0,076	0,127
-134,629	512,387	0,022	-0,037
-133,614	-24,390	0,074	-0,032
-132,599	128,953	0,146	-0,134
-131,585	42,991	0,034	0,022
-130,570	800,000	-0,015	-0,033
-129,556	57,676	0,047	0,033
-128,541	58,105	0,131	0,092
-127,526	-89,860	0,038	0,008
-126,512	138,885	-0,064	0,060
-125,497	443,358	-0,075	0,118
-124,483	-76,031	0,110	0,028
-123,468	-200,000	-0,025	-0,110
-122,453	-39,490	0,084	-0,032
-121,439	539,645	-0,091	0,157
-120,424	71,751	-0,052	-0,039
-119,410	-200,000	-0,012	0,143
-118,395	80,084	0,035	-0,027
