DTS Sentinel unit serial number:	SN410029Multiplexer serial number:	ORYXHardware model number:	OX2-SRSoftware version number:	ORYX F/W v4,00 Oryx Data Collector v3.7.2.0data status	okinstallation	B6 Nyhavnadifferential loss correction	single-endedforward channel	channel 2reverse channel	N/Adate	2023/12/09time	21:10:08forward acquisition time	300,00reverse acquisition time	0,00gamma	499,1914k internal	0,3128k external	0,3128temperature offset calibration	1,0000default loss term (dB/km)	0,3820temperature slope calibration	1,0000multiplexer offset coefficient	1,0000multiplexer slope coefficient	1,0000fibre end	0,00T internal ref (°C)	21,50T ext. ref 1 (°C)	5,39T ext. ref 2 (°C)	5,39length (m)	temperature (°C)	Stokes	anti-Stokes-744,400	92,036	0,099	-0,083
-743,385	-47,006	-0,298	0,108
-742,371	-80,954	-0,029	0,007
-741,356	10,969	-0,193	0,110
-740,342	66,284	0,112	0,084
-739,327	63,752	-0,178	0,133
-738,312	-102,666	0,096	0,017
-737,298	-175,432	-0,216	0,004
-736,283	752,014	0,038	0,077
-735,269	-47,892	-0,195	0,070
-734,254	2,000	-0,092	0,049
-733,239	-54,286	-0,390	-0,131
-732,225	161,832	0,118	0,123
-731,210	-200,000	0,004	-0,018
-730,196	-200,000	-0,008	0,052
-729,181	105,930	0,046	0,040
-728,167	389,910	0,127	0,197
-727,152	324,313	0,014	-0,021
-726,137	483,727	-0,070	0,119
-725,123	105,823	-0,075	-0,066
-724,108	-200,000	0,021	-0,082
-723,094	231,629	-0,113	-0,138
-722,079	800,000	0,065	-0,145
-721,064	72,671	0,073	0,057
-720,050	-78,959	0,035	0,009
-719,035	-70,349	-0,062	-0,017
-718,021	-200,000	0,011	0,073
-717,006	-200,000	0,009	0,090
-715,991	-200,000	-0,022	-0,134
-714,977	0,404	0,105	0,055
-713,962	-11,030	-0,109	0,053
-712,948	632,719	0,043	0,082
-711,933	-200,000	0,016	-0,123
-710,918	-162,736	-0,031	-0,001
-709,904	-44,512	-0,067	0,025
-708,889	198,853	-0,062	-0,070
-707,875	48,051	0,189	-0,131
-706,860	-200,000	-0,003	-0,130
-705,845	164,784	0,073	0,077
-704,831	104,195	0,060	0,052
-703,816	245,220	-0,059	0,074
-702,802	800,000	-0,059	-0,193
-701,787	-200,000	0,012	-0,083
-700,772	-41,953	0,135	-0,051
-699,758	30,919	0,082	0,052
-698,743	194,802	-0,061	0,069
-697,729	-155,888	0,192	0,009
-696,714	-200,000	-0,008	-0,098
-695,699	-200,000	0,011	0,055
-694,685	2,984	-0,068	0,037
-693,670	-160,278	-0,103	-0,004
-692,656	-200,000	-0,006	0,070
-691,641	-79,994	0,141	0,035
-690,627	-86,996	0,161	0,036
-689,612	-138,279	-0,191	-0,015
-688,597	-13,112	0,034	-0,016
-687,583	53,206	-0,120	-0,085
-686,568	-200,000	-0,007	-0,140
-685,554	-163,384	-0,039	0,001
-684,539	18,884	-0,028	0,016
-683,524	-200,000	-0,007	0,101
-682,510	-50,429	-0,079	-0,028
-681,495	-200,000	0,009	-0,153
-680,481	49,318	-0,058	-0,041
-679,466	137,229	-0,062	-0,060
-678,451	282,071	-0,049	0,065
-677,437	412,749	0,085	0,134
-676,422	344,094	0,086	-0,126
-675,408	-89,213	-0,073	-0,016
-674,393	174,113	-0,048	0,051
-673,378	-200,000	0,001	-0,094
-672,364	389,586	-0,031	-0,048
-671,349	-138,967	-0,064	-0,005
-670,335	800,000	-0,034	0,089
-669,320	-200,000	-0,017	-0,122
-668,305	-200,000	-0,007	-0,071
-667,291	124,629	-0,053	0,050
-666,276	163,821	-0,095	-0,100
-665,262	-169,684	-0,199	-0,005
-664,247	800,000	0,027	0,073
-663,232	-200,000	0,001	0,024
-662,218	-200,000	0,005	0,077
-661,203	800,000	-0,056	-0,122
-660,189	-200,000	0,000	-0,014
-659,174	800,000	0,022	-0,045
-658,159	-200,000	-0,017	-0,205
-657,145	-63,688	-0,137	-0,041
-656,130	127,971	0,014	-0,013
-655,116	311,477	0,071	-0,099
-654,101	-200,000	-0,018	-0,118
-653,086	-97,525	-0,045	-0,009
-652,072	-200,000	-0,001	-0,087
-651,057	800,000	-0,046	0,120
-650,043	800,000	-0,032	-0,103
-649,028	-7,421	-0,157	-0,079
-648,014	-147,264	0,124	-0,008
-646,999	-200,000	0,010	0,199
-645,984	-170,497	0,033	0,001
-644,970	-82,350	-0,123	-0,030
-643,955	-148,581	0,087	0,005
-642,941	-200,000	-0,007	-0,061
-641,926	-108,295	0,058	0,009
-640,911	-151,152	-0,123	-0,007
-639,897	104,034	-0,097	-0,085
-638,882	-49,343	-0,041	0,014
-637,868	-3,020	-0,181	-0,093
-636,853	21,478	-0,107	-0,064
-635,838	398,123	0,037	-0,057
-634,824	-17,510	-0,024	0,011
-633,809	269,751	0,028	0,037
-632,795	-20,983	-0,091	0,041
-631,780	123,432	-0,076	0,070
-630,765	171,656	-0,022	-0,024
-629,751	-151,864	-0,117	0,006
-628,736	59,773	0,041	0,030
-627,722	-76,351	-0,182	-0,047
-626,707	-71,400	-0,104	-0,029
-625,692	195,385	0,057	-0,064
-624,678	721,167	0,029	0,057
-623,663	-33,513	0,042	0,017
-622,649	242,806	0,111	-0,138
-621,634	30,152	-0,144	-0,091
-620,619	1,844	-0,023	-0,012
-619,605	273,185	-0,047	0,061
-618,590	655,643	0,063	-0,121
-617,576	28,475	-0,122	-0,076
-616,561	117,833	0,018	-0,016
-615,546	351,271	-0,098	-0,144
-614,532	-127,569	-0,128	-0,014
-613,517	349,764	0,063	-0,092
-612,503	236,793	0,050	0,062
-611,488	-63,593	-0,045	0,014
-610,474	800,000	-0,021	0,063
-609,459	-26,130	0,132	0,057
-608,444	79,087	-0,090	0,071
-607,430	-95,434	0,108	0,021
-606,415	741,866	-0,033	0,066
-605,401	247,900	0,068	0,085
-604,386	-200,000	0,013	0,065
-603,371	-18,832	-0,106	-0,049
-602,357	-128,623	0,016	-0,002
-601,342	-200,000	0,017	-0,126
-600,328	353,538	-0,053	-0,078
-599,313	-72,106	-0,014	-0,004
-598,298	17,743	-0,021	0,012
-597,284	800,000	-0,028	0,066
-596,269	-110,014	0,078	0,012
-595,255	33,279	0,010	0,006
-594,240	-200,000	-0,016	0,116
-593,225	378,213	-0,073	-0,111
-592,211	39,707	-0,083	-0,055
-591,196	241,172	-0,069	-0,085
-590,182	226,773	0,096	0,116
-589,167	800,000	-0,048	0,100
-588,152	-130,988	-0,108	0,011
-587,138	-24,323	-0,153	-0,067
-586,123	51,072	0,148	-0,103
-585,109	-11,197	0,049	-0,024
-584,094	38,390	-0,108	-0,071
-583,079	54,762	0,045	0,032
-582,065	35,431	-0,038	-0,024
-581,050	-177,679	-0,119	-0,002
-580,036	-200,000	0,014	-0,062
-579,021	-200,000	0,010	-0,045
-578,006	520,282	-0,007	0,013
-576,992	505,346	0,042	-0,071
-575,977	-78,363	0,136	0,034
-574,963	-73,697	0,014	0,004
-573,948	259,109	0,034	-0,043
-572,934	331,177	-0,085	0,121
-571,919	800,000	-0,029	-0,077
-570,904	-200,000	-0,033	-0,201
-569,890	3,153	-0,149	-0,080
-568,875	91,209	0,068	-0,056
-567,861	-19,805	0,068	0,031
-566,846	-55,168	0,206	0,068
-565,831	197,120	-0,069	0,078
-564,817	291,280	-0,047	0,064
-563,802	434,176	-0,023	0,038
-562,788	-74,032	0,102	-0,027
-561,773	-200,000	-0,014	0,055
-560,758	107,783	-0,090	-0,079
-559,744	-5,812	0,062	-0,031
-558,729	-0,456	0,058	0,030
-557,715	800,000	-0,020	-0,051
-556,700	-200,000	-0,017	-0,147
-555,685	-1,940	0,103	-0,053
-554,671	800,000	-0,013	0,035
-553,656	448,286	-0,020	0,033
-552,642	800,000	0,028	-0,068
-551,627	-87,279	0,044	0,010
-550,612	-200,000	-0,008	-0,042
-549,598	359,243	0,097	-0,144
-548,583	143,564	-0,055	-0,054
-547,569	17,208	-0,098	0,057
-546,554	-43,952	-0,061	0,022
-545,539	-55,864	0,066	0,022
-544,525	89,254	-0,083	0,068
-543,510	2,912	-0,092	-0,049
-542,496	264,544	-0,021	-0,027
-541,481	-200,000	0,029	0,151
-540,466	87,984	-0,051	0,042
-539,452	800,000	0,016	-0,044
-538,437	-83,930	0,103	0,024
-537,423	10,777	-0,147	-0,082
-536,408	-200,000	-0,001	0,059
-535,393	28,000	0,135	0,084
-534,379	-200,000	0,020	-0,072
-533,364	800,000	0,041	0,097
-532,350	-60,573	0,138	0,043
-531,335	40,579	0,065	0,043
-530,321	-200,000	0,020	0,098
-529,306	-200,000	-0,007	-0,120
-528,291	21,004	-0,127	0,076
-527,277	-87,528	-0,115	0,026
-526,262	435,628	0,056	-0,090
-525,248	-200,000	0,030	0,120
-524,233	-200,000	0,029	0,127
-523,218	49,065	0,052	0,036
-522,204	-38,995	0,082	-0,032
-521,189	-200,000	-0,003	-0,076
-520,175	-159,969	-0,061	-0,002
-519,160	-157,700	-0,201	-0,009
-518,145	800,000	0,046	-0,124
-517,131	-200,000	0,032	0,147
-516,116	104,439	0,056	-0,049
-515,102	-200,000	0,014	-0,123
-514,087	185,090	-0,077	-0,084
-513,072	-92,775	-0,057	-0,012
-512,058	-114,802	-0,115	-0,016
-511,043	-23,988	0,092	-0,040
-510,029	-101,565	0,155	-0,027
-509,014	-55,842	0,152	0,050
-507,999	-200,000	0,001	-0,079
-506,985	-18,481	0,013	-0,006
-505,970	-45,161	0,119	-0,043
-504,956	-35,179	-0,049	0,020
-503,941	167,387	0,031	0,033
-502,926	-200,000	-0,013	-0,121
-501,912	4,739	-0,124	-0,067
-500,897	-129,886	-0,133	-0,013
-499,883	308,416	-0,010	-0,013
-498,868	-200,000	-0,017	-0,071
-497,853	67,020	0,041	-0,031
-496,839	-92,289	0,105	0,022
-495,824	-141,258	0,203	0,015
-494,810	534,479	0,031	0,054
-493,795	-88,074	0,080	-0,018
-492,781	473,573	0,119	0,198
-491,766	-200,000	-0,000	-0,073
-490,751	81,059	-0,034	-0,027
-489,737	-33,584	-0,047	0,019
-488,722	-200,000	0,021	0,200
-487,708	-25,047	0,051	-0,022
-486,693	514,022	-0,025	-0,042
-485,678	314,978	-0,057	0,080
-484,664	-22,116	-0,036	-0,016
-483,649	-200,000	-0,008	-0,067
-482,635	-200,000	-0,010	-0,081
-481,620	-49,666	-0,180	-0,063
-480,605	88,384	0,077	-0,063
-479,591	800,000	0,024	-0,066
-478,576	53,360	-0,052	-0,037
-477,562	341,703	-0,051	-0,073
-476,547	-154,881	-0,099	0,005
-475,532	44,264	0,088	-0,059
-474,518	81,440	-0,039	-0,031
-473,503	603,895	-0,024	0,044
-472,489	-33,885	0,048	-0,019
-471,474	-200,000	0,047	0,174
-470,459	-200,000	0,001	-0,054
-469,445	-102,195	0,027	-0,005
-468,430	-200,000	0,000	-0,016
-467,416	-117,923	-0,090	-0,012
-466,401	83,939	0,027	0,022
-465,386	134,964	0,032	0,031
-464,372	800,000	0,007	0,022
-463,357	41,322	0,103	0,068
-462,343	800,000	-0,053	-0,127
-461,328	-77,171	0,055	0,014
-460,313	-200,000	0,017	-0,072
-459,299	-37,089	-0,061	0,024
-458,284	45,776	0,077	0,052
-457,270	320,893	0,085	0,119
-456,255	-200,000	0,008	0,054
-455,241	-200,000	-0,019	-0,111
-454,226	-200,000	-0,014	-0,113
-453,211	800,000	0,046	-0,106
-452,197	124,940	0,070	0,065
-451,182	82,807	0,078	0,063
-450,168	-200,000	0,004	0,013
-449,153	-200,000	0,009	0,165
-448,138	-88,000	-0,150	0,033
-447,124	-200,000	0,000	0,106
-446,109	-25,570	-0,029	0,012
-445,095	-105,730	0,158	0,026
-444,080	-183,293	0,126	0,002
-443,065	-200,000	-0,017	0,168
-442,051	116,597	-0,089	-0,080
-441,036	-7,268	-0,116	0,057
-440,022	-200,000	-0,014	-0,049
-439,007	-200,000	-0,015	0,168
-437,992	-132,562	-0,071	0,007
-436,978	178,130	0,068	-0,073
-435,963	-200,000	0,009	-0,062
-434,949	-200,000	0,009	0,076
-433,934	49,250	0,055	0,038
-432,919	134,303	-0,098	-0,093
-431,905	-37,346	-0,028	-0,011
-430,890	113,644	0,027	0,024
-429,876	319,491	-0,077	0,108
-428,861	330,201	-0,038	0,055
-427,846	-18,094	0,054	0,025
-426,832	-200,000	-0,014	-0,083
-425,817	-3,143	-0,083	-0,042
-424,803	380,685	0,024	0,036
-423,788	-36,172	-0,179	0,071
-422,773	-200,000	0,006	0,028
-421,759	82,763	-0,115	-0,092
-420,744	-68,992	-0,059	-0,017
-419,730	601,529	-0,023	-0,042
-418,715	611,291	-0,022	0,040
-417,701	164,265	0,076	0,079
-416,686	800,000	0,024	0,066
-415,671	800,000	-0,019	-0,059
-414,657	79,728	0,065	0,051
-413,642	-200,000	-0,006	0,027
-412,628	195,087	0,073	-0,081
-411,613	-200,000	-0,022	-0,128
-410,598	415,346	-0,050	-0,078
-409,584	70,380	0,079	-0,060
-408,569	181,336	-0,015	0,016
-407,555	-200,000	0,030	-0,143
-406,540	179,878	-0,060	-0,064
-405,525	122,367	-0,116	-0,107
-404,511	-200,000	0,036	-0,135
-403,496	-27,689	0,203	-0,086
-402,482	-200,000	-0,012	0,079
-401,467	-200,000	0,003	0,022
-400,452	272,932	0,039	-0,051
-399,438	-200,000	-0,007	0,201
-398,423	800,000	-0,024	-0,065
-397,409	800,000	0,041	-0,131
-396,394	64,602	-0,007	-0,006
-395,379	-200,000	-0,004	0,044
-394,365	-200,000	-0,004	0,046
-393,350	800,000	0,027	-0,086
-392,336	283,149	-0,011	-0,014
-391,321	-162,191	-0,118	-0,004
-390,306	55,621	-0,043	0,030
-389,292	-38,467	-0,030	0,012
-388,277	80,892	0,056	0,045
-387,263	-3,694	0,064	-0,033
-386,248	-200,000	0,005	0,092
-385,233	163,301	0,069	0,071
-384,219	800,000	-0,032	-0,102
-383,204	137,565	-0,046	-0,044
-382,190	-148,451	0,162	0,010
-381,175	-200,000	0,018	0,076
-380,160	-139,976	0,141	0,011
-379,146	172,437	0,104	0,110
-378,131	-181,674	-0,076	0,001
-377,117	-200,000	0,008	0,109
-376,102	-200,000	-0,004	-0,071
-375,088	138,690	0,016	0,016
-374,073	169,670	-0,073	0,077
-373,058	546,172	0,009	-0,016
-372,044	66,016	0,100	0,075
-371,029	147,523	0,032	0,031
-370,015	494,210	0,053	-0,089
-369,000	800,000	-0,007	0,016
-367,985	-105,932	0,049	0,008
-366,971	-200,000	0,003	0,125
-365,956	-200,000	-0,025	0,080
-364,942	422,845	0,040	0,064
-363,927	-55,693	0,259	0,084
-362,912	-200,000	0,015	0,104
-361,898	-200,000	-0,030	0,120
-360,883	-4,281	0,036	-0,018
-359,869	-200,000	0,019	0,113
-358,854	-200,000	-0,006	0,025
-357,839	2,297	0,032	-0,017
-356,825	-28,146	0,076	0,032
-355,810	-200,000	-0,006	-0,034
-354,796	800,000	0,067	-0,183
-353,781	65,177	-0,065	-0,048
-352,766	-41,235	-0,050	0,019
-351,752	205,593	0,070	-0,080
-350,737	-200,000	0,043	0,147
-349,723	41,798	-0,119	0,079
-348,708	154,094	0,030	0,030
-347,693	178,752	-0,075	-0,080
-346,679	31,079	0,038	0,024
-345,664	-89,017	-0,121	0,026
-344,650	-91,323	0,192	0,040
-343,635	-6,467	-0,133	-0,066
-342,620	65,155	0,046	0,034
-341,606	164,046	0,007	0,007
-340,591	-108,548	0,066	0,010
-339,577	72,754	0,034	-0,026
-338,562	800,000	0,057	0,129
-337,548	31,677	0,117	0,074
-336,533	-49,704	0,038	0,013
-335,518	-200,000	0,009	0,069
-334,504	-200,000	-0,025	-0,102
-333,489	800,000	0,020	-0,044
-332,475	-51,892	-0,059	0,020
-331,460	800,000	-0,003	-0,009
-330,445	-67,198	-0,039	-0,011
-329,431	-200,000	0,001	0,077
-328,416	-125,822	-0,046	-0,005
-327,402	-200,000	-0,016	-0,102
-326,387	800,000	0,014	0,035
-325,372	800,000	0,040	-0,125
-324,358	71,137	-0,090	-0,068
-323,343	-60,989	0,062	0,019
-322,329	-200,000	0,014	0,100
-321,314	-96,971	0,061	0,012
-320,299	-121,228	0,043	0,005
-319,285	-11,254	-0,102	-0,049
-318,270	-42,780	0,038	-0,014
-317,256	61,922	-0,048	0,035
-316,241	36,281	-0,074	0,048
-315,226	-52,291	0,062	0,021
-314,212	19,161	-0,068	0,040
-313,197	152,352	0,100	-0,100
-312,183	94,338	0,140	0,117
-311,168	-200,000	-0,006	-0,065
-310,153	243,392	-0,050	-0,061
-309,139	-200,000	0,029	-0,107
-308,124	39,149	0,137	0,090
-307,110	-200,000	-0,009	0,093
-306,095	155,544	0,074	0,075
-305,080	335,425	0,050	0,071
-304,066	-200,000	0,007	0,123
-303,051	-200,000	-0,018	-0,121
-302,037	606,810	-0,082	-0,150
-301,022	-200,000	-0,021	0,116
-300,008	-121,418	0,139	0,017
-298,993	-200,000	-0,034	0,116
-297,978	-200,000	0,024	0,083
-296,964	-56,584	0,166	-0,053
-295,949	53,494	-0,105	-0,073
-294,935	-200,000	0,004	-0,026
-293,920	-63,840	0,093	0,028
-292,905	-106,470	0,153	0,025
-291,891	-200,000	-0,028	0,183
-290,876	30,322	-0,083	-0,052
-289,862	381,446	0,036	-0,053
-288,847	50,143	0,017	0,012
-287,832	6,337	0,110	-0,060
-286,818	-200,000	0,009	0,037
-285,803	-168,939	-0,034	-0,001
-284,789	362,744	0,090	0,132
-283,774	35,588	-0,030	-0,019
-282,759	-200,000	-0,001	-0,008
-281,745	800,000	-0,029	-0,076
-280,730	758,017	-0,023	-0,046
-279,716	800,000	-0,054	-0,156
-278,701	113,269	0,124	0,110
-277,686	-93,718	0,181	-0,036
-276,672	337,099	0,063	0,090
-275,657	-200,000	-0,017	0,084
-274,643	598,070	0,035	0,064
-273,628	81,904	-0,061	-0,048
-272,613	89,818	-0,108	0,088
-271,599	-200,000	-0,014	-0,052
-270,584	-200,000	0,006	-0,123
-269,570	148,441	0,070	0,069
-268,555	121,984	0,091	0,083
-267,540	-29,895	-0,059	-0,024
-266,526	-142,407	-0,151	-0,011
-265,511	-200,000	0,023	0,124
-264,497	12,165	0,116	0,065
-263,482	800,000	-0,021	0,053
-262,467	164,941	-0,035	0,036
-261,453	184,795	-0,100	0,108
-260,438	-200,000	-0,055	-0,178
-259,424	513,573	-0,009	0,016
-258,409	158,931	0,067	-0,068
-257,395	534,223	0,031	0,054
-256,380	292,856	0,101	0,135
-255,365	-200,000	-0,001	0,021
-254,351	244,056	-0,068	-0,084
-253,336	-83,442	-0,067	-0,015
-252,322	-107,111	-0,126	-0,020
-251,307	34,710	0,046	0,029
-250,292	-102,578	0,084	-0,014
-249,278	-200,000	-0,004	0,034
-248,263	211,776	-0,019	-0,021
-247,249	-200,000	0,007	-0,031
-246,234	10,618	-0,065	0,036
-245,219	298,014	-0,020	-0,026
-244,205	-69,077	-0,096	0,027
-243,190	-28,539	0,042	0,017
-242,176	-49,444	0,050	0,017
-241,161	-84,127	0,033	0,008
-240,146	50,298	-0,095	-0,065
-239,132	304,648	0,054	0,073
-238,117	-200,000	-0,020	-0,120
-237,103	93,842	0,061	-0,050
-236,088	-75,061	-0,078	0,020
-235,073	-101,178	-0,038	-0,007
-234,059	164,901	0,053	0,055
-233,044	-200,000	-0,034	0,194
-232,030	-200,000	-0,018	0,190
-231,015	561,662	-0,005	-0,008
-230,000	-181,159	-0,127	0,002
-228,986	576,150	0,064	-0,114
-227,971	714,104	0,007	-0,014
-226,957	301,011	0,037	0,049
-225,942	-200,000	-0,020	0,105
-224,927	434,482	-0,085	-0,135
-223,913	-200,000	0,011	-0,100
-222,898	290,097	-0,045	-0,060
-221,884	-200,000	0,006	-0,020
-220,869	-200,000	-0,014	0,061
-219,855	800,000	0,042	0,120
-218,840	-200,000	0,015	0,102
-217,825	-82,485	-0,044	0,010
-216,811	145,123	-0,030	-0,029
-215,796	-69,006	-0,164	-0,046
-214,782	-200,000	-0,010	0,062
-213,767	800,000	0,045	0,139
-212,752	38,717	0,085	-0,055
-211,738	-169,084	-0,054	-0,001
-210,723	-72,542	0,012	-0,003
-209,709	117,112	0,108	-0,097
-208,694	-74,462	-0,061	-0,016
-207,679	-10,394	0,004	0,002
-206,665	800,000	0,029	0,090
-205,650	185,150	0,110	0,119
-204,636	-200,000	-0,012	-0,087
-203,621	451,902	0,073	-0,118
-202,606	-65,943	0,101	-0,029
-201,592	34,756	-0,092	0,058
-200,577	102,173	0,063	-0,054
-199,563	419,901	0,028	0,043
-198,548	-94,307	-0,040	0,008
-197,533	146,380	-0,036	-0,035
-196,519	800,000	0,020	0,061
-195,504	-200,000	0,004	0,045
-194,490	31,127	-0,107	-0,066
-193,475	144,527	0,052	0,051
-192,460	-147,383	0,026	-0,002
-191,446	-111,744	-0,008	0,001
-190,431	-200,000	-0,012	-0,050
-189,417	-200,000	0,002	0,038
-188,402	-200,000	0,018	-0,057
-187,387	-13,727	0,016	-0,007
-186,373	-200,000	0,006	-0,097
-185,358	-200,000	0,031	-0,157
-184,344	-200,000	-0,004	-0,062
-183,329	103,981	0,017	-0,015
-182,315	-5,344	-0,027	0,014
-181,300	-140,439	-0,104	-0,008
-180,285	-200,000	-0,022	-0,129
-179,271	4,865	-0,120	0,064
-178,256	800,000	-0,023	-0,055
-177,242	800,000	-0,014	-0,039
-176,227	518,357	-0,013	-0,023
-175,212	-200,000	0,009	-0,090
-174,198	183,586	-0,051	-0,055
-173,183	-185,034	-0,168	-0,002
-172,169	-35,004	-0,117	-0,046
-171,154	100,131	-0,065	0,055
-170,139	-66,474	-0,078	-0,022
-169,125	231,011	0,073	0,087
-168,110	155,072	0,123	0,123
-167,096	-147,616	-0,120	0,007
-166,081	-42,394	-0,070	-0,026
-165,066	644,684	-0,091	-0,170
-164,052	-3,151	-0,055	-0,028
-163,037	-200,000	0,013	-0,073
-162,023	-65,590	0,102	-0,030
-161,008	800,000	0,037	0,091
-159,993	1,981	0,134	-0,070
-158,979	-200,000	-0,020	0,161
-157,964	800,000	-0,052	-0,143
-156,950	800,000	-0,008	0,018
-155,935	247,619	-0,060	-0,074
-154,920	-200,000	0,004	0,046
-153,906	49,883	0,083	0,057
-152,891	-20,585	-0,051	0,023
-151,877	-24,950	0,053	-0,023
-150,862	-62,915	-0,082	0,024
-149,847	-76,261	-0,132	0,034
-148,833	-200,000	-0,000	-0,094
-147,818	108,910	0,090	-0,078
-146,804	-142,416	0,105	-0,007
-145,789	264,211	0,045	0,057
-144,775	443,262	0,037	-0,059
-143,760	-21,398	-0,214	-0,095
-142,745	-200,000	-0,001	0,049
-141,731	-73,793	0,034	0,009
-140,716	-31,399	-0,067	0,027
-139,702	-18,235	0,090	-0,041
-138,687	800,000	0,020	0,063
-137,672	-200,000	0,000	-0,018
-136,658	621,483	-0,075	-0,138
-135,643	800,000	-0,079	-0,162
-134,629	531,863	-0,065	0,111
-133,614	124,769	0,039	0,035
-132,599	210,663	0,060	0,068
-131,585	-56,072	-0,097	0,031
-130,570	108,172	-0,060	-0,052
-129,556	200,078	0,027	-0,030
-128,541	-200,000	-0,003	0,047
-127,526	-200,000	0,018	0,058
-126,512	799,084	0,027	0,055
-125,497	-131,724	0,116	0,011
-124,483	18,339	-0,059	-0,034
-123,468	-149,503	-0,006	-0,000
-122,453	512,109	0,063	-0,108
-121,439	23,408	-0,076	-0,045
-120,424	-200,000	0,011	-0,080
-119,410	106,616	0,087	-0,075
