DTS Sentinel unit serial number:	SN410029Multiplexer serial number:	ORYXHardware model number:	OX2-SRSoftware version number:	ORYX F/W v4,00 Oryx Data Collector v3.7.2.0data status	okinstallation	B6 Nyhavnadifferential loss correction	single-endedforward channel	channel 2reverse channel	N/Adate	2023/12/07time	16:55:08forward acquisition time	300,00reverse acquisition time	0,00gamma	499,1914k internal	0,3164k external	0,3164temperature offset calibration	1,0000default loss term (dB/km)	0,3820temperature slope calibration	1,0000multiplexer offset coefficient	1,0000multiplexer slope coefficient	1,0000fibre end	0,00T internal ref (°C)	14,50T ext. ref 1 (°C)	-2,24T ext. ref 2 (°C)	-2,25length (m)	temperature (°C)	Stokes	anti-Stokes-744,400	113,720	0,110	-0,098
-743,385	-57,929	-0,216	-0,069
-742,371	-82,505	0,144	-0,034
-741,356	-167,633	-0,204	-0,006
-740,342	66,293	0,071	-0,053
-739,327	-189,219	-0,320	-0,003
-738,312	64,860	0,047	-0,035
-737,298	-129,997	-0,422	-0,042
-736,283	9,624	0,162	0,090
-735,269	97,204	-0,109	0,092
-734,254	272,224	-0,033	0,043
-733,239	59,294	-0,316	-0,229
-732,225	-109,756	0,168	-0,026
-731,210	-57,236	0,068	-0,022
-730,196	800,000	-0,033	-0,073
-729,181	19,163	-0,057	-0,033
-728,167	-45,745	0,110	0,040
-727,152	-55,342	-0,147	0,048
-726,137	175,058	-0,007	-0,007
-725,123	32,945	-0,094	0,060
-724,108	-80,341	-0,034	-0,008
-723,094	104,093	-0,061	0,053
-722,079	44,006	-0,102	-0,069
-721,064	53,447	-0,118	0,083
-720,050	800,000	0,024	0,070
-719,035	-200,000	0,000	0,005
-718,021	-200,000	0,012	0,122
-717,006	26,586	-0,041	-0,025
-715,991	116,760	-0,160	-0,144
-714,977	146,618	-0,049	-0,048
-713,962	800,000	0,075	0,157
-712,948	296,084	0,052	-0,071
-711,933	-24,998	0,041	0,018
-710,918	-200,000	0,033	-0,109
-709,904	-87,329	-0,133	-0,029
-708,889	-200,000	-0,006	0,024
-707,875	-147,519	-0,060	-0,004
-706,860	-7,069	0,105	0,052
-705,845	-96,359	-0,065	-0,013
-704,831	-10,646	-0,128	0,062
-703,816	-56,595	-0,105	0,034
-702,802	63,486	-0,053	-0,039
-701,787	800,000	-0,024	-0,067
-700,772	-200,000	0,014	0,067
-699,758	-70,091	0,068	-0,019
-698,743	233,369	0,037	0,045
-697,729	-109,139	0,072	0,011
-696,714	-200,000	0,003	0,077
-695,699	-200,000	-0,001	-0,043
-694,685	-79,058	-0,120	0,030
-693,670	-200,000	0,000	-0,056
-692,656	-50,502	0,093	-0,032
-691,641	425,802	-0,032	0,050
-690,627	-141,799	-0,070	-0,005
-689,612	-140,011	-0,064	0,005
-688,597	84,947	-0,109	-0,088
-687,583	-46,752	-0,075	-0,027
-686,568	-21,954	-0,084	-0,037
-685,554	-4,773	0,106	0,053
-684,539	105,091	0,043	-0,037
-683,524	-80,195	-0,065	-0,016
-682,510	-83,402	-0,080	-0,019
-681,495	-131,967	-0,072	-0,007
-680,481	323,087	-0,033	0,046
-679,466	-177,748	-0,083	0,001
-678,451	-85,444	0,153	0,035
-677,437	618,455	0,054	0,101
-676,422	800,000	0,004	-0,011
-675,408	120,135	0,061	0,055
-674,393	-53,370	-0,037	0,012
-673,378	150,042	-0,048	-0,048
-672,364	-138,512	-0,095	0,008
-671,349	-146,375	-0,081	-0,005
-670,335	-57,483	-0,090	-0,029
-669,320	208,571	0,042	0,048
-668,305	-200,000	0,012	0,065
-667,291	-40,924	-0,022	-0,008
-666,276	800,000	-0,053	-0,116
-665,262	-64,401	-0,158	0,047
-664,247	-134,546	0,026	-0,002
-663,232	-188,918	-0,083	-0,001
-662,218	-200,000	-0,002	0,033
-661,203	-200,000	0,005	-0,016
-660,189	-200,000	-0,012	-0,043
-659,174	-112,034	-0,109	-0,016
-658,159	-200,000	0,024	-0,118
-657,145	173,771	-0,060	0,063
-656,130	800,000	-0,036	-0,080
-655,116	382,963	0,078	0,119
-654,101	800,000	0,045	0,096
-653,086	800,000	-0,051	-0,105
-652,072	68,647	0,087	0,066
-651,057	324,288	-0,070	-0,098
-650,043	217,908	-0,075	-0,088
-649,028	105,350	-0,042	-0,036
-648,014	800,000	0,005	-0,011
-646,999	800,000	0,027	-0,066
-645,984	515,699	-0,059	-0,102
-644,970	-200,000	-0,029	-0,194
-643,955	112,491	0,009	0,008
-642,941	-39,244	-0,033	0,013
-641,926	63,966	0,096	0,070
-640,911	-200,000	0,007	-0,063
-639,897	-10,004	0,096	0,047
-638,882	116,436	-0,007	0,007
-637,868	800,000	0,023	-0,057
-636,853	4,147	0,082	-0,044
-635,838	130,127	0,048	0,045
-634,824	-38,676	-0,015	-0,006
-633,809	194,889	0,062	0,069
-632,795	456,097	0,050	-0,082
-631,780	-200,000	-0,029	-0,148
-630,765	-60,292	-0,050	-0,016
-629,751	157,546	-0,082	0,083
-628,736	-126,641	-0,092	0,010
-627,722	5,113	0,064	-0,034
-626,707	18,168	-0,052	0,030
-625,692	55,104	0,001	0,001
-624,678	267,639	0,036	0,046
-623,663	800,000	-0,016	0,038
-622,649	-200,000	-0,005	0,029
-621,634	800,000	0,033	-0,073
-620,619	-200,000	-0,024	0,090
-619,605	800,000	0,034	0,074
-618,590	5,642	0,064	-0,034
-617,576	-200,000	-0,001	-0,035
-616,561	-200,000	0,002	-0,196
-615,546	335,689	-0,024	0,034
-614,532	800,000	0,016	-0,050
-613,517	-23,372	-0,064	0,028
-612,503	-200,000	-0,003	0,095
-611,488	-178,824	0,127	-0,002
-610,474	199,766	0,046	0,051
-609,459	800,000	0,068	0,146
-608,444	-200,000	-0,012	-0,146
-607,430	-39,837	-0,089	-0,034
-606,415	388,248	-0,076	-0,115
-605,401	57,532	-0,057	-0,041
-604,386	222,183	-0,105	-0,124
-603,371	-122,954	-0,113	-0,013
-602,357	359,970	-0,061	0,090
-601,342	54,508	-0,090	0,063
-600,328	-200,000	-0,008	-0,130
-599,313	800,000	0,027	0,077
-598,298	51,782	-0,121	-0,084
-597,284	-200,000	-0,016	-0,093
-596,269	-200,000	0,010	0,145
-595,255	-142,442	-0,084	0,006
-594,240	-42,652	-0,068	-0,025
-593,225	67,457	0,119	-0,089
-592,211	94,245	-0,088	-0,073
-591,196	-200,000	-0,000	-0,005
-590,182	-11,773	-0,131	0,063
-589,167	-53,965	0,067	-0,022
-588,152	-200,000	-0,019	0,105
-587,138	-127,150	-0,013	-0,001
-586,123	-200,000	0,010	-0,086
-585,109	482,430	0,031	-0,051
-584,094	-30,100	-0,122	-0,050
-583,079	800,000	0,039	0,079
-582,065	-144,920	0,016	-0,001
-581,050	-200,000	0,039	0,166
-580,036	-200,000	-0,005	0,076
-579,021	800,000	0,049	-0,135
-578,006	-44,115	-0,070	0,026
-576,992	17,845	0,009	-0,005
-575,977	-200,000	-0,004	-0,019
-574,963	-200,000	-0,012	-0,072
-573,948	17,145	-0,023	-0,013
-572,934	398,910	-0,076	0,117
-571,919	89,275	-0,099	-0,081
-570,904	-111,237	-0,189	0,028
-569,890	-48,120	-0,066	0,023
-568,875	-200,000	0,025	0,087
-567,861	-107,980	0,069	-0,011
-566,846	-141,329	0,062	-0,005
-565,831	69,080	-0,093	0,070
-564,817	317,838	0,084	-0,116
-563,802	-200,000	0,010	-0,035
-562,788	-64,752	-0,054	-0,016
-561,773	38,490	-0,065	-0,042
-560,758	256,075	-0,072	-0,090
-559,744	21,399	0,044	-0,026
-558,729	-62,944	-0,014	-0,004
-557,715	-143,596	0,099	-0,007
-556,700	84,688	-0,039	-0,032
-555,685	-27,171	-0,143	-0,060
-554,671	-77,873	0,094	0,024
-553,656	294,598	-0,084	0,112
-552,642	-93,809	-0,093	-0,018
-551,627	800,000	0,018	-0,042
-550,612	-200,000	0,009	0,038
-549,598	35,702	-0,159	-0,102
-548,583	-2,637	-0,137	-0,070
-547,569	305,126	0,099	-0,135
-546,554	169,427	-0,041	-0,043
-545,539	-200,000	0,004	-0,027
-544,525	800,000	-0,009	-0,022
-543,510	138,911	-0,046	0,044
-542,496	10,826	-0,098	-0,054
-541,481	-200,000	-0,013	-0,147
-540,466	316,527	-0,094	0,130
-539,452	800,000	0,078	0,233
-538,437	197,259	0,044	-0,049
-537,423	800,000	0,058	0,176
-536,408	-200,000	-0,015	0,084
-535,393	369,019	-0,040	-0,059
-534,379	800,000	0,051	-0,146
-533,364	200,793	-0,023	0,026
-532,350	253,958	0,056	0,070
-531,335	314,332	0,069	-0,096
-530,321	215,987	0,065	-0,075
-529,306	800,000	-0,007	-0,019
-528,291	-28,808	-0,084	-0,035
-527,277	-200,000	0,007	0,062
-526,262	83,256	0,054	-0,043
-525,248	-200,000	-0,133	0,000
-524,233	4,222	0,058	-0,031
-523,218	126,995	-0,110	0,102
-522,204	-200,000	-0,032	0,166
-521,189	753,669	-0,059	0,117
-520,175	-130,311	-0,093	0,009
-519,160	-50,701	-0,179	-0,061
-518,145	392,405	-0,049	0,074
-517,131	636,131	0,087	0,162
-516,116	-64,864	-0,123	0,036
-515,102	800,000	-0,045	-0,091
-514,087	-138,020	-0,115	-0,009
-513,072	-56,285	0,012	0,004
-512,058	-69,371	0,016	-0,004
-511,043	242,075	-0,093	-0,113
-510,029	-200,000	0,037	-0,124
-509,014	-87,429	-0,032	0,007
-507,999	90,317	0,095	0,078
-506,985	800,000	-0,025	0,070
-505,970	-200,000	0,005	-0,078
-504,956	127,646	0,063	-0,058
-503,941	-200,000	-0,018	0,069
-502,926	-113,151	0,108	-0,015
-501,912	-200,000	0,013	-0,077
-500,897	324,680	0,039	0,054
-499,883	-200,000	0,010	0,133
-498,868	121,362	0,081	0,074
-497,853	32,809	-0,108	0,068
-496,839	443,552	0,060	0,097
-495,824	-200,000	0,019	-0,126
-494,810	410,626	-0,038	-0,058
-493,795	-200,000	-0,007	-0,138
-492,781	99,264	-0,041	-0,034
-491,766	-200,000	0,015	-0,090
-490,751	76,801	-0,158	-0,122
-489,737	-9,792	0,056	-0,027
-488,722	54,435	-0,072	0,050
-487,708	333,536	0,036	-0,051
-486,693	125,932	0,075	0,069
-485,678	84,403	-0,010	0,008
-484,664	-200,000	-0,019	-0,112
-483,649	800,000	-0,014	0,043
-482,635	-200,000	0,023	-0,096
-481,620	-200,000	-0,007	-0,034
-480,605	283,834	0,069	0,091
-479,591	-200,000	-0,007	-0,045
-478,576	393,457	0,014	-0,022
-477,562	-118,683	-0,131	0,017
-476,547	460,386	0,050	-0,081
-475,532	-85,647	0,070	0,016
-474,518	-200,000	0,002	0,085
-473,503	-200,000	0,023	0,100
-472,489	-157,264	0,038	0,002
-471,474	-200,000	-0,023	0,167
-470,459	-200,000	-0,034	0,198
-469,445	-200,000	0,003	0,087
-468,430	379,030	0,023	0,035
-467,416	-133,072	0,221	0,020
-466,401	-200,000	0,002	0,045
-465,386	-150,637	0,166	0,009
-464,372	-35,619	0,082	-0,032
-463,357	-200,000	-0,010	-0,067
-462,343	-87,598	-0,097	0,021
-461,328	800,000	0,067	0,148
-460,313	800,000	0,071	0,169
-459,299	358,317	-0,057	0,083
-458,284	-57,773	0,023	-0,007
-457,270	-200,000	-0,013	-0,045
-456,255	-200,000	0,003	0,035
-455,241	-200,000	0,004	-0,031
-454,226	-23,239	-0,039	-0,017
-453,211	122,208	0,080	-0,072
-452,197	33,381	0,065	0,041
-451,182	-53,506	0,121	0,040
-450,168	283,339	-0,102	-0,133
-449,153	139,370	0,060	-0,057
-448,138	592,291	0,029	0,052
-447,124	9,830	-0,169	-0,093
-446,109	165,114	0,027	-0,028
-445,095	-44,062	-0,044	-0,016
-444,080	-97,291	0,137	0,026
-443,065	-113,163	-0,136	0,019
-442,051	298,424	0,105	0,141
-441,036	340,757	-0,086	0,123
-440,022	-200,000	-0,005	0,034
-439,007	-200,000	-0,011	-0,148
-437,992	-45,978	0,156	-0,056
-436,978	800,000	0,040	-0,095
-435,963	259,756	0,042	-0,053
-434,949	-133,516	0,148	-0,013
-433,934	114,955	-0,050	0,044
-432,919	800,000	0,026	-0,068
-431,905	207,116	0,055	0,062
-430,890	-144,542	0,105	-0,007
-429,876	131,292	0,017	0,016
-428,861	280,860	0,062	0,081
-427,846	-200,000	0,010	-0,050
-426,832	800,000	0,028	0,061
-425,817	-200,000	-0,005	0,093
-424,803	89,828	0,088	0,071
-423,788	123,892	-0,038	0,035
-422,773	205,279	-0,005	-0,005
-421,759	-159,927	0,038	-0,001
-420,744	1,567	0,021	0,011
-419,730	-200,000	-0,001	0,053
-418,715	-200,000	-0,015	-0,080
-417,701	-91,474	-0,036	0,007
-416,686	230,719	-0,025	-0,029
-415,671	800,000	0,069	0,144
-414,657	-40,250	0,075	0,028
-413,642	-128,324	0,110	0,011
-412,628	800,000	-0,007	0,022
-411,613	-200,000	0,030	-0,162
-410,598	800,000	-0,034	0,092
-409,584	-34,752	0,163	-0,064
-408,569	-200,000	-0,032	0,191
-407,555	261,980	-0,029	0,036
-406,540	800,000	0,017	0,037
-405,525	-79,284	0,047	0,012
-404,511	-200,000	0,077	0,000
-403,496	5,403	-0,216	-0,115
-402,482	-74,661	0,142	0,037
-401,467	800,000	0,048	0,145
-400,452	-200,000	-0,025	0,121
-399,438	-191,575	-0,036	0,000
-398,423	800,000	-0,029	0,064
-397,409	-142,994	-0,124	0,009
-396,394	-200,000	0,034	-0,142
-395,379	-200,000	0,000	0,048
-394,365	-200,000	-0,029	0,178
-393,350	240,950	0,071	0,086
-392,336	-117,154	0,127	-0,017
-391,321	2,552	-0,081	0,043
-390,306	59,342	-0,088	-0,063
-389,292	-200,000	-0,019	0,102
-388,277	362,695	-0,096	0,141
-387,263	-102,190	0,071	-0,012
-386,248	-200,000	-0,009	0,094
-385,233	-200,000	0,005	-0,082
-384,219	-131,077	-0,119	0,011
-383,204	434,488	-0,036	0,057
-382,190	-200,000	0,017	-0,079
-381,175	252,445	0,028	-0,035
-380,160	-200,000	-0,007	-0,065
-379,146	-127,886	0,056	0,006
-378,131	-200,000	-0,001	0,054
-377,117	154,843	-0,096	0,095
-376,102	-150,678	0,084	-0,005
-375,088	199,791	0,042	0,047
-374,073	-148,893	0,085	-0,005
-373,058	-47,021	-0,133	-0,047
-372,044	-200,000	0,014	0,154
-371,029	152,228	-0,023	0,023
-370,015	800,000	0,045	-0,118
-369,000	-200,000	-0,007	-0,055
-367,985	-200,000	0,004	0,135
-366,971	-200,000	0,003	-0,041
-365,956	800,000	0,046	-0,128
-364,942	172,364	0,047	-0,049
-363,927	109,354	0,127	0,111
-362,912	241,313	0,022	0,026
-361,898	-87,292	0,091	-0,020
-360,883	-14,345	-0,139	0,065
-359,869	-188,391	-0,095	0,001
-358,854	800,000	-0,045	0,124
-357,839	800,000	-0,072	0,168
-356,825	-200,000	0,005	0,038
-355,810	192,177	0,140	0,153
-354,796	64,310	-0,177	-0,129
-353,781	-8,585	-0,021	0,010
-352,766	-200,000	0,006	-0,047
-351,752	136,117	0,057	-0,054
-350,737	22,419	0,290	-0,171
-349,723	110,372	-0,130	0,113
-348,708	800,000	0,030	-0,072
-347,693	311,370	0,094	-0,128
-346,679	-200,000	0,017	-0,169
-345,664	310,927	0,024	-0,033
-344,650	21,013	0,115	-0,067
-343,635	-69,542	-0,103	0,028
-342,620	-200,000	-0,003	0,081
-341,606	-49,662	0,089	-0,030
-340,591	-188,130	0,068	-0,001
-339,577	-42,745	-0,047	0,017
-338,562	-200,000	0,026	-0,088
-337,548	-120,482	-0,015	0,002
-336,533	11,801	0,065	0,036
-335,518	-71,242	-0,040	-0,011
-334,504	4,244	0,094	0,050
-333,489	176,169	-0,135	-0,142
-332,475	333,117	-0,035	-0,049
-331,460	-61,663	0,038	-0,011
-330,445	-200,000	0,007	0,049
-329,431	119,212	0,020	-0,018
-328,416	-6,244	0,166	0,082
-327,402	41,053	0,048	-0,031
-326,387	-200,000	-0,013	0,048
-325,372	382,838	-0,031	0,047
-324,358	-200,000	-0,048	-0,177
-323,343	-200,000	-0,003	0,023
-322,329	-191,676	0,134	-0,001
-321,314	93,176	-0,049	-0,040
-320,299	-135,541	0,096	-0,008
-319,285	208,685	-0,054	0,062
-318,270	800,000	-0,017	-0,046
-317,256	800,000	0,068	-0,199
-316,241	-73,469	-0,114	0,030
-315,226	-162,794	0,074	0,003
-314,212	-24,081	-0,049	-0,021
-313,197	-156,880	0,111	0,005
-312,183	-92,938	-0,042	0,008
-311,168	-182,274	-0,105	0,001
-310,153	-200,000	-0,025	-0,123
-309,139	228,612	-0,095	0,112
-308,124	6,323	-0,091	-0,049
-307,110	-146,880	0,078	-0,005
-306,095	-175,539	0,159	0,003
-305,080	62,265	-0,145	0,104
-304,066	454,778	0,074	0,120
-303,051	192,854	0,031	0,034
-302,037	-151,803	-0,080	-0,004
-301,022	215,328	-0,046	-0,053
-300,008	20,178	0,107	-0,062
-298,993	-200,000	-0,002	0,032
-297,978	220,939	0,045	-0,053
-296,964	800,000	-0,017	0,034
-295,949	56,543	0,046	0,032
-294,935	-0,065	-0,106	-0,054
-293,920	-41,328	0,238	0,088
-292,905	9,397	0,027	0,015
-291,891	-200,000	0,001	0,178
-290,876	-169,452	-0,074	0,002
-289,862	-152,680	0,097	0,005
-288,847	31,126	-0,059	-0,037
-287,832	-130,889	-0,084	0,008
-286,818	128,502	0,106	-0,097
-285,803	800,000	-0,048	0,125
-284,789	166,074	0,070	-0,072
-283,774	-84,625	-0,056	0,013
-282,759	800,000	0,003	-0,008
-281,745	-135,988	0,003	-0,000
-280,730	-200,000	-0,011	0,060
-279,716	193,252	-0,053	0,058
-278,701	800,000	-0,038	0,087
-277,686	-103,584	0,074	0,012
-276,672	51,637	-0,103	-0,071
-275,657	-200,000	0,011	-0,101
-274,643	44,317	-0,051	-0,034
-273,628	-78,453	-0,079	-0,019
-272,613	-138,988	-0,089	0,007
-271,599	9,052	0,130	0,071
-270,584	450,069	0,141	0,226
-269,570	-200,000	-0,032	0,118
-268,555	658,664	0,077	-0,143
-267,540	-200,000	0,016	0,062
-266,526	156,357	-0,014	-0,014
-265,511	-47,998	0,047	-0,016
-264,497	-200,000	0,010	-0,145
-263,482	562,100	-0,064	0,112
-262,467	-70,937	0,143	-0,039
-261,453	513,934	-0,050	-0,085
-260,438	350,451	-0,094	-0,135
-259,424	-37,584	-0,143	-0,055
-258,409	-105,307	-0,102	0,017
-257,395	52,624	0,089	-0,062
-256,380	94,949	-0,046	0,038
-255,365	52,112	0,039	0,027
-254,351	-200,000	0,004	-0,092
-253,336	800,000	-0,011	0,032
-252,322	-97,335	-0,042	0,008
-251,307	-200,000	-0,011	0,049
-250,292	800,000	0,032	0,085
-249,278	-51,104	0,084	0,028
-248,263	59,122	0,084	0,059
-247,249	-176,805	-0,034	-0,001
-246,234	158,156	0,024	0,024
-245,219	95,875	0,091	-0,075
-244,205	-126,783	0,014	0,001
-243,190	-80,586	-0,037	-0,009
-242,176	-95,005	0,062	0,012
-241,161	46,483	0,039	-0,026
-240,146	-200,000	0,002	0,128
-239,132	399,127	-0,069	0,105
-238,117	-200,000	-0,012	-0,080
-237,103	51,142	0,056	-0,038
-236,088	800,000	-0,010	-0,021
-235,073	68,374	0,045	-0,033
-234,059	-4,558	-0,080	-0,040
-233,044	-124,666	-0,038	0,004
-232,030	-80,460	-0,070	0,017
-231,015	20,067	0,088	-0,051
-230,000	-90,959	-0,204	-0,042
-228,986	-21,220	-0,145	-0,064
-227,971	35,106	0,076	0,048
-226,957	61,119	0,078	-0,056
-225,942	-116,435	0,077	0,010
-224,927	-59,907	-0,110	-0,034
-223,913	-123,243	-0,067	-0,008
-222,898	-199,642	0,041	0,000
-221,884	-200,000	0,017	-0,121
-220,869	-200,000	-0,004	0,035
-219,855	69,589	0,077	0,057
-218,840	800,000	-0,055	-0,113
-217,825	118,220	0,065	-0,058
-216,811	48,662	-0,028	0,019
-215,796	-200,000	0,018	-0,086
-214,782	-12,800	0,073	-0,034
-213,767	129,437	0,059	-0,055
-212,752	2,763	0,037	-0,020
-211,738	-129,247	0,060	-0,006
-210,723	130,915	0,026	-0,024
-209,709	-200,000	0,021	-0,090
-208,694	-200,000	0,005	-0,115
-207,679	-61,254	-0,109	0,033
-206,665	-138,430	-0,115	0,009
-205,650	277,344	-0,051	-0,065
-204,636	-200,000	-0,002	0,059
-203,621	-200,000	-0,032	0,150
-202,606	800,000	-0,033	-0,096
-201,592	-44,759	-0,113	-0,040
-200,577	-200,000	0,019	0,085
-199,563	-116,947	0,075	-0,010
-198,548	-143,760	-0,150	0,010
-197,533	295,170	0,047	-0,062
-196,519	800,000	-0,020	0,053
-195,504	-62,950	-0,085	-0,025
-194,490	89,524	-0,027	-0,022
-193,475	-200,000	-0,019	-0,138
-192,460	-114,242	0,123	0,017
-191,446	800,000	-0,053	0,151
-190,431	654,613	0,055	0,102
-189,417	-97,542	-0,142	-0,026
-188,402	22,983	-0,028	-0,016
-187,387	186,156	-0,053	-0,057
-186,373	127,758	-0,104	-0,095
-185,358	800,000	0,050	0,117
-184,344	-21,541	-0,101	-0,044
-183,329	97,669	-0,048	-0,040
-182,315	-200,000	0,022	-0,093
-181,300	-86,827	-0,074	-0,016
-180,285	-27,465	-0,137	-0,057
-179,271	800,000	-0,030	-0,085
-178,256	-9,147	0,122	0,059
-177,242	124,081	0,090	0,081
-176,227	138,272	0,065	0,061
-175,212	-123,606	0,056	0,006
-174,198	800,000	0,026	-0,062
-173,183	800,000	0,035	-0,099
-172,169	800,000	0,024	-0,051
-171,154	60,194	-0,007	0,005
-170,139	16,275	-0,077	0,044
-169,125	426,064	0,025	-0,039
-168,110	-200,000	-0,012	0,080
-167,096	-72,652	-0,155	-0,041
-166,081	-200,000	0,028	0,089
-165,066	-56,484	0,214	-0,068
-164,052	-180,104	0,121	-0,002
-163,037	-200,000	0,022	0,081
-162,023	-67,942	-0,035	0,010
-161,008	800,000	-0,009	0,019
-159,993	-22,313	0,092	0,040
-158,979	-93,622	0,040	-0,008
-157,964	202,075	-0,026	0,029
-156,950	800,000	-0,037	-0,093
-155,935	26,385	0,110	0,066
-154,920	223,132	-0,061	0,071
-153,906	-91,980	0,105	0,021
-152,891	17,760	0,046	-0,026
-151,877	800,000	-0,055	-0,118
-150,862	332,600	0,085	-0,119
-149,847	118,644	-0,068	0,061
-148,833	-200,000	-0,006	-0,098
-147,818	-92,038	0,028	0,006
-146,804	-200,000	0,010	0,053
-145,789	-76,034	0,022	0,006
-144,775	42,498	-0,022	0,014
-143,760	108,855	-0,072	-0,062
-142,745	334,586	0,043	0,060
-141,731	800,000	0,028	-0,083
-140,716	135,800	-0,043	0,041
-139,702	-105,725	0,067	0,011
-138,687	-86,870	-0,105	0,023
-137,672	800,000	0,051	-0,155
-136,658	800,000	0,042	-0,124
-135,643	-200,000	0,028	-0,159
-134,629	55,574	0,044	-0,031
-133,614	117,181	-0,074	0,065
-132,599	-59,384	0,063	-0,019
-131,585	-200,000	0,001	0,031
-130,570	-95,307	0,125	-0,024
-129,556	-200,000	-0,010	-0,052
-128,541	63,493	-0,151	-0,109
-127,526	634,479	-0,055	-0,101
-126,512	-152,138	-0,068	-0,003
-125,497	800,000	0,037	-0,075
-124,483	186,000	0,057	-0,061
-123,468	-200,000	0,035	0,112
-122,453	26,740	-0,151	-0,090
-121,439	188,672	-0,079	-0,085
-120,424	170,098	-0,043	0,045
