DTS Sentinel unit serial number:	SN410029Multiplexer serial number:	ORYXHardware model number:	OX2-SRSoftware version number:	ORYX F/W v4,00 Oryx Data Collector v3.7.2.0data status	okinstallation	B6 Nyhavnadifferential loss correction	single-endedforward channel	channel 2reverse channel	N/Adate	2023/12/11time	09:50:08forward acquisition time	300,00reverse acquisition time	0,00gamma	499,1914k internal	0,3140k external	0,3140temperature offset calibration	1,0000default loss term (dB/km)	0,3820temperature slope calibration	1,0000multiplexer offset coefficient	1,0000multiplexer slope coefficient	1,0000fibre end	0,00T internal ref (°C)	16,33T ext. ref 1 (°C)	-1,14T ext. ref 2 (°C)	-1,18length (m)	temperature (°C)	Stokes	anti-Stokes-744,400	269,549	-0,019	-0,025
-743,385	-34,165	-0,232	0,094
-742,371	231,606	0,043	0,052
-741,356	43,963	-0,299	0,203
-740,342	-20,353	-0,086	-0,039
-739,327	-45,322	-0,260	0,095
-738,312	800,000	-0,051	0,119
-737,298	-139,113	-0,344	-0,027
-736,283	28,079	0,055	0,034
-735,269	-94,425	-0,316	0,063
-734,254	-200,000	0,018	0,097
-733,239	46,693	-0,382	-0,262
-732,225	-166,039	0,130	0,004
-731,210	-200,000	-0,035	0,140
-730,196	-33,948	0,030	-0,012
-729,181	-83,013	-0,045	0,011
-728,167	-49,686	-0,044	0,016
-727,152	-200,000	0,010	0,055
-726,137	102,565	-0,095	0,082
-725,123	-97,632	-0,125	-0,024
-724,108	-152,657	-0,057	0,003
-723,094	800,000	-0,047	-0,096
-722,079	-140,040	-0,086	0,007
-721,064	-106,365	0,052	-0,009
-720,050	1,814	0,025	0,013
-719,035	800,000	-0,033	0,077
-718,021	-156,001	-0,058	-0,003
-717,006	1,722	-0,131	-0,070
-715,991	-52,035	-0,149	-0,051
-714,977	800,000	-0,058	-0,169
-713,962	-120,744	0,096	-0,012
-712,948	-200,000	0,020	-0,158
-711,933	44,231	-0,049	-0,034
-710,918	-200,000	0,016	-0,096
-709,904	100,491	-0,139	-0,119
-708,889	-129,844	0,098	0,010
-707,875	-21,200	-0,093	-0,042
-706,860	-6,349	-0,094	-0,047
-705,845	671,765	0,064	-0,124
-704,831	-70,866	0,124	0,034
-703,816	-200,000	-0,009	-0,242
-702,802	-200,000	-0,053	0,181
-701,787	262,331	-0,082	-0,105
-700,772	-41,493	0,023	0,009
-699,758	11,165	-0,033	-0,019
-698,743	-41,276	0,108	0,041
-697,729	29,418	-0,128	0,080
-696,714	-79,337	0,065	0,016
-695,699	92,485	-0,026	0,022
-694,685	-87,621	-0,107	0,024
-693,670	21,647	0,048	0,029
-692,656	-65,514	0,140	-0,041
-691,641	503,037	-0,068	0,116
-690,627	-200,000	0,013	-0,059
-689,612	-58,924	-0,090	0,029
-688,597	249,897	0,027	-0,035
-687,583	151,429	0,049	-0,050
-686,568	114,097	-0,173	-0,155
-685,554	800,000	0,007	-0,021
-684,539	800,000	0,062	-0,134
-683,524	382,988	0,094	-0,143
-682,510	152,874	-0,046	-0,046
-681,495	-200,000	-0,015	-0,067
-680,481	10,422	0,097	-0,054
-679,466	-122,575	-0,186	0,022
-678,451	23,354	-0,080	-0,048
-677,437	218,433	0,137	0,162
-676,422	-200,000	0,011	0,047
-675,408	-200,000	0,015	0,065
-674,393	406,264	-0,026	-0,040
-673,378	-200,000	-0,005	-0,137
-672,364	300,066	-0,065	-0,089
-671,349	-63,789	-0,092	0,028
-670,335	51,082	-0,056	0,039
-669,320	265,311	0,004	-0,005
-668,305	-94,754	-0,038	-0,008
-667,291	-26,607	-0,237	0,102
-666,276	77,498	-0,135	-0,106
-665,262	402,398	-0,002	0,003
-664,247	-200,000	-0,001	0,040
-663,232	-200,000	-0,026	0,091
-662,218	800,000	0,031	0,073
-661,203	413,086	0,053	-0,084
-660,189	706,917	0,035	-0,068
-659,174	217,450	0,045	0,053
-658,159	72,842	-0,077	-0,060
-657,145	17,168	-0,175	-0,102
-656,130	690,034	0,034	0,067
-655,116	-105,159	0,074	-0,012
-654,101	345,487	-0,069	0,101
-653,086	450,634	0,038	-0,063
-652,072	-125,481	-0,051	0,006
-651,057	-200,000	0,013	-0,099
-650,043	106,991	0,027	0,024
-649,028	-167,643	0,108	-0,003
-648,014	0,714	0,063	-0,033
-646,999	620,441	0,046	0,086
-645,984	34,955	-0,032	0,020
-644,970	446,412	-0,055	-0,090
-643,955	97,775	-0,068	-0,058
-642,941	-200,000	-0,014	-0,103
-641,926	800,000	-0,027	-0,081
-640,911	151,970	0,048	0,048
-639,897	12,437	0,062	0,035
-638,882	800,000	0,014	0,035
-637,868	800,000	-0,027	-0,061
-636,853	800,000	-0,055	-0,120
-635,838	289,863	-0,045	-0,060
-634,824	-78,632	-0,105	-0,026
-633,809	86,928	-0,029	-0,023
-632,795	-111,823	0,059	0,009
-631,780	418,498	-0,035	-0,055
-630,765	-90,631	-0,171	-0,036
-629,751	800,000	-0,026	-0,056
-628,736	426,807	-0,035	-0,056
-627,722	535,825	0,058	-0,102
-626,707	168,136	-0,073	-0,077
-625,692	-156,797	-0,061	0,003
-624,678	162,322	-0,074	0,077
-623,663	168,812	0,009	-0,010
-622,649	-200,000	0,003	-0,139
-621,634	1,697	-0,113	-0,060
-620,619	179,732	0,031	0,033
-619,605	140,125	-0,118	-0,115
-618,590	22,737	0,185	-0,112
-617,576	-200,000	-0,005	0,055
-616,561	-99,084	-0,072	-0,013
-615,546	800,000	-0,042	-0,125
-614,532	-38,586	-0,145	0,056
-613,517	48,388	-0,055	-0,038
-612,503	-2,521	-0,192	0,099
-611,488	-200,000	-0,003	0,086
-610,474	251,260	-0,037	0,046
-609,459	-41,218	-0,148	-0,056
-608,444	157,267	0,048	0,049
-607,430	800,000	-0,055	-0,148
-606,415	800,000	0,064	-0,138
-605,401	42,696	-0,022	0,015
-604,386	76,317	-0,110	0,086
-603,371	196,856	0,077	0,086
-602,357	-64,398	0,012	0,004
-601,342	357,749	0,053	0,079
-600,328	259,574	0,026	-0,033
-599,313	-13,950	0,080	-0,038
-598,298	-38,638	0,099	-0,038
-597,284	23,906	-0,075	0,045
-596,269	-200,000	0,003	0,096
-595,255	158,260	-0,109	0,112
-594,240	158,783	-0,060	-0,061
-593,225	-200,000	-0,006	0,078
-592,211	800,000	0,054	-0,122
-591,196	-15,925	0,110	-0,051
-590,182	-68,875	0,051	0,014
-589,167	96,849	0,059	-0,049
-588,152	78,365	0,049	0,039
-587,138	72,404	0,055	0,042
-586,123	-200,000	-0,024	-0,159
-585,109	-200,000	-0,008	-0,036
-584,094	-21,983	-0,068	-0,031
-583,079	800,000	0,041	-0,127
-582,065	-200,000	0,002	0,073
-581,050	800,000	0,042	-0,099
-580,036	-66,628	-0,084	0,024
-579,021	153,327	-0,090	0,091
-578,006	-173,821	0,063	0,001
-576,992	46,688	-0,064	-0,043
-575,977	-200,000	0,001	0,029
-574,963	-150,875	-0,052	0,003
-573,948	117,401	0,095	0,086
-572,934	800,000	0,031	0,072
-571,919	-26,691	-0,097	0,041
-570,904	515,581	-0,102	-0,177
-569,890	-29,712	0,058	-0,024
-568,875	159,321	0,082	0,084
-567,861	90,429	0,101	-0,083
-566,846	44,291	-0,074	0,050
-565,831	800,000	-0,037	-0,083
-564,817	-60,948	-0,060	0,018
-563,802	-2,439	-0,047	-0,024
-562,788	57,782	0,034	0,024
-561,773	573,624	0,040	0,073
-560,758	800,000	0,028	-0,084
-559,744	-3,376	-0,154	0,078
-558,729	-200,000	-0,024	0,136
-557,715	800,000	0,057	-0,140
-556,700	-200,000	0,014	-0,172
-555,685	-200,000	0,044	-0,148
-554,671	239,621	-0,012	-0,015
-553,656	659,025	-0,059	0,112
-552,642	-24,091	0,028	-0,012
-551,627	-2,107	0,065	-0,034
-550,612	257,281	-0,089	-0,112
-549,598	373,120	-0,029	-0,043
-548,583	-200,000	-0,013	0,055
-547,569	800,000	0,048	-0,116
-546,554	181,450	0,021	-0,023
-545,539	-177,193	0,141	0,003
-544,525	800,000	0,058	0,182
-543,510	45,567	-0,049	-0,034
-542,496	-200,000	-0,026	-0,109
-541,481	200,680	0,056	-0,063
-540,466	-144,789	-0,033	0,002
-539,452	800,000	0,033	-0,093
-538,437	169,866	0,050	0,052
-537,423	10,189	-0,100	0,056
-536,408	328,246	0,068	0,096
-535,393	-200,000	-0,018	0,086
-534,379	26,391	-0,103	-0,063
-533,364	22,186	-0,096	-0,057
-532,350	-126,568	0,262	-0,028
-531,335	196,955	-0,085	0,095
-530,321	-123,376	0,059	-0,007
-529,306	45,569	-0,042	0,029
-528,291	-62,835	-0,060	-0,018
-527,277	800,000	0,014	0,034
-526,262	384,770	0,051	0,078
-525,248	-113,382	-0,036	0,005
-524,233	61,449	0,209	0,153
-523,218	342,311	0,082	0,119
-522,204	800,000	-0,023	0,052
-521,189	-200,000	-0,020	0,067
-520,175	-64,316	-0,198	-0,059
-519,160	-28,907	-0,159	0,067
-518,145	-200,000	-0,041	-0,139
-517,131	-200,000	0,013	0,068
-516,116	-200,000	-0,009	0,047
-515,102	226,821	0,038	0,046
-514,087	800,000	0,034	0,104
-513,072	-49,268	-0,037	-0,013
-512,058	739,218	0,044	-0,088
-511,043	-90,434	0,086	-0,018
-510,029	-36,443	0,057	-0,023
-509,014	134,091	0,087	0,083
-507,999	800,000	0,023	0,053
-506,985	65,116	-0,206	-0,153
-505,970	-56,423	-0,045	-0,015
-504,956	147,294	-0,044	-0,043
-503,941	-200,000	0,003	0,150
-502,926	-24,465	0,056	0,024
-501,912	67,778	0,156	0,117
-500,897	529,254	-0,044	0,077
-499,883	-200,000	-0,005	-0,058
-498,868	-13,881	-0,069	-0,033
-497,853	70,462	-0,009	-0,006
-496,839	573,699	0,059	0,105
-495,824	635,237	0,012	-0,023
-494,810	-1,317	0,086	0,045
-493,795	-47,671	-0,115	-0,041
-492,781	-31,012	0,104	-0,043
-491,766	-200,000	-0,009	-0,051
-490,751	-94,443	0,043	0,009
-489,737	-50,983	0,058	-0,020
-488,722	-6,964	-0,047	-0,023
-487,708	-200,000	0,017	-0,109
-486,693	800,000	0,003	-0,007
-485,678	-135,189	-0,100	-0,009
-484,664	800,000	0,014	-0,030
-483,649	-200,000	0,000	-0,032
-482,635	679,751	0,017	0,032
-481,620	89,689	0,124	0,101
-480,605	680,421	0,084	0,161
-479,591	-29,430	-0,141	-0,059
-478,576	800,000	0,038	-0,092
-477,562	66,105	-0,093	-0,069
-476,547	-7,337	0,066	-0,033
-475,532	-200,000	-0,016	-0,206
-474,518	62,587	0,047	0,034
-473,503	-200,000	0,016	0,090
-472,489	-166,150	0,116	-0,004
-471,474	-200,000	0,030	0,105
-470,459	-200,000	0,006	-0,079
-469,445	115,938	-0,079	0,071
-468,430	-200,000	-0,041	-0,163
-467,416	14,589	0,083	-0,048
-466,401	800,000	0,028	0,086
-465,386	143,462	-0,061	-0,060
-464,372	800,000	0,065	-0,164
-463,357	125,666	0,042	-0,039
-462,343	-200,000	-0,010	-0,206
-461,328	-123,891	0,039	0,004
-460,313	243,742	-0,051	-0,063
-459,299	800,000	-0,023	0,051
-458,284	-0,996	-0,053	0,027
-457,270	800,000	0,051	0,158
-456,255	-31,373	-0,173	-0,071
-455,241	-14,953	-0,085	0,040
-454,226	-200,000	-0,019	-0,086
-453,211	-148,119	-0,056	-0,003
-452,197	15,335	0,113	-0,065
-451,182	-48,485	0,092	0,032
-450,168	642,037	0,047	-0,088
-449,153	-144,331	-0,080	-0,005
-448,138	-82,985	0,041	0,010
-447,124	343,874	0,028	0,041
-446,109	-140,441	0,053	-0,004
-445,095	12,860	0,086	-0,049
-444,080	800,000	-0,020	-0,053
-443,065	-200,000	0,007	0,173
-442,051	356,121	-0,045	0,065
-441,036	-68,770	-0,072	0,020
-440,022	595,311	-0,045	-0,083
-439,007	-200,000	-0,004	0,046
-437,992	-33,533	-0,126	-0,051
-436,978	-200,000	0,029	-0,135
-435,963	470,676	0,053	0,088
-434,949	22,094	0,052	-0,031
-433,934	-200,000	-0,038	-0,195
-432,919	163,230	-0,025	-0,026
-431,905	-200,000	0,026	-0,115
-430,890	72,712	0,024	-0,019
-429,876	21,901	0,076	-0,046
-428,861	-75,668	0,059	-0,015
-427,846	800,000	0,004	0,012
-426,832	527,746	-0,038	-0,067
-425,817	169,901	-0,026	0,027
-424,803	-50,029	-0,096	-0,033
-423,788	-200,000	-0,025	0,101
-422,773	-200,000	-0,008	0,110
-421,759	376,799	-0,032	0,049
-420,744	97,402	-0,015	0,012
-419,730	800,000	0,048	-0,111
-418,715	800,000	0,028	-0,086
-417,701	800,000	-0,059	0,145
-416,686	18,410	0,079	0,046
-415,671	5,896	0,050	-0,027
-414,657	-81,962	0,086	0,020
-413,642	-200,000	0,015	0,082
-412,628	800,000	-0,045	0,112
-411,613	126,590	0,113	0,105
-410,598	80,696	-0,030	-0,024
-409,584	-200,000	0,018	0,060
-408,569	253,652	0,096	0,121
-407,555	502,068	0,033	-0,056
-406,540	-200,000	0,003	0,023
-405,525	800,000	0,018	-0,051
-404,511	-200,000	0,017	-0,096
-403,496	31,919	-0,118	-0,074
-402,482	-86,839	-0,043	0,010
-401,467	-37,930	0,176	0,068
-400,452	448,963	0,066	-0,107
-399,438	800,000	-0,023	0,065
-398,423	220,554	0,082	-0,097
-397,409	486,595	-0,141	-0,236
-396,394	15,485	-0,087	0,050
-395,379	-41,416	0,067	0,025
-394,365	-200,000	0,019	0,098
-393,350	-27,866	-0,137	0,058
-392,336	800,000	0,052	-0,112
-391,321	-200,000	-0,024	-0,101
-390,306	147,313	0,061	-0,060
-389,292	-90,758	-0,095	-0,020
-388,277	-12,596	0,058	0,028
-387,263	-200,000	-0,018	0,107
-386,248	183,866	-0,053	0,057
-385,233	-200,000	0,011	0,046
-384,219	744,403	-0,045	-0,088
-383,204	-117,565	-0,156	-0,020
-382,190	-200,000	-0,025	0,102
-381,175	353,335	0,041	0,060
-380,160	-200,000	0,002	0,032
-379,146	800,000	0,037	0,077
-378,131	-200,000	0,020	0,093
-377,117	-200,000	0,002	0,017
-376,102	100,245	-0,062	-0,052
-375,088	-60,223	0,015	-0,005
-374,073	-101,771	-0,073	-0,013
-373,058	-200,000	-0,023	0,148
-372,044	-200,000	0,012	0,098
-371,029	-134,626	-0,035	0,003
-370,015	166,376	0,022	-0,023
-369,000	-17,179	-0,084	0,039
-367,985	800,000	0,033	0,069
-366,971	13,222	0,108	0,061
-365,956	-200,000	0,003	0,067
-364,942	-147,719	-0,019	0,001
-363,927	800,000	-0,034	-0,101
-362,912	-136,031	0,081	-0,007
-361,898	-200,000	-0,002	-0,092
-360,883	-200,000	-0,005	0,090
-359,869	-75,775	-0,058	0,015
-358,854	-133,663	0,086	0,008
-357,839	800,000	0,031	0,069
-356,825	484,282	0,023	-0,038
-355,810	336,537	0,015	0,021
-354,796	136,147	-0,089	-0,085
-353,781	-93,415	-0,079	-0,016
-352,766	-200,000	0,046	-0,153
-351,752	-51,278	0,053	0,018
-350,737	-200,000	-0,006	0,048
-349,723	-200,000	0,003	0,046
-348,708	621,925	-0,032	0,059
-347,693	-59,603	-0,084	-0,026
-346,679	345,545	0,067	-0,097
-345,664	800,000	-0,050	0,156
-344,650	-38,030	-0,048	0,019
-343,635	-62,472	0,135	-0,041
-342,620	439,008	-0,035	0,056
-341,606	-200,000	0,021	0,166
-340,591	-172,585	-0,171	-0,004
-339,577	789,259	0,064	-0,128
-338,562	-129,427	-0,198	0,020
-337,548	648,781	0,077	0,144
-336,533	800,000	-0,039	0,103
-335,518	-200,000	-0,008	0,188
-334,504	-138,636	0,080	0,006
-333,489	-48,930	-0,084	-0,029
-332,475	-38,050	-0,142	0,055
-331,460	107,516	-0,045	0,039
-330,445	-64,605	0,114	-0,033
-329,431	-79,187	-0,115	0,028
-328,416	72,906	0,173	0,132
-327,402	427,223	0,013	0,020
-326,387	-149,089	-0,136	-0,008
-325,372	592,635	-0,049	-0,088
-324,358	-17,624	0,165	-0,075
-323,343	-200,000	0,037	-0,148
-322,329	-62,113	0,075	0,023
-321,314	540,213	-0,025	-0,043
-320,299	-200,000	-0,027	-0,102
-319,285	-66,237	0,099	0,029
-318,270	-5,284	-0,196	0,098
-317,256	269,176	0,054	-0,069
-316,241	-200,000	0,015	-0,070
-315,226	-200,000	-0,014	0,070
-314,212	-200,000	0,007	0,050
-313,197	21,459	0,104	-0,062
-312,183	196,633	0,035	0,039
-311,168	-200,000	-0,003	-0,045
-310,153	314,963	-0,061	-0,085
-309,139	11,505	0,089	0,050
-308,124	42,508	0,166	0,110
-307,110	-200,000	0,006	0,084
-306,095	-200,000	0,029	0,095
-305,080	80,551	0,058	0,046
-304,066	479,854	0,038	0,063
-303,051	128,263	0,060	0,055
-302,037	-109,962	-0,020	-0,003
-301,022	-6,063	0,055	0,027
-300,008	183,555	0,006	-0,007
-298,993	-84,902	0,193	0,044
-297,978	800,000	-0,074	0,203
-296,964	54,374	0,083	-0,058
-295,949	10,606	-0,043	-0,024
-294,935	-19,212	-0,047	-0,021
-293,920	800,000	0,031	-0,099
-292,905	800,000	-0,019	-0,061
-291,891	51,224	0,127	0,088
-290,876	800,000	0,013	-0,031
-289,862	-200,000	-0,005	-0,061
-288,847	800,000	0,039	-0,098
-287,832	-167,902	-0,078	0,002
-286,818	7,393	0,104	0,057
-285,803	-118,470	0,170	0,022
-284,789	172,353	-0,077	0,080
-283,774	611,126	-0,013	0,024
-282,759	800,000	-0,032	0,098
-281,745	649,875	0,035	-0,065
-280,730	494,003	-0,020	0,034
-279,716	-81,759	0,066	-0,016
-278,701	-200,000	-0,014	-0,114
-277,686	-47,273	-0,013	0,005
-276,672	94,851	-0,113	0,093
-275,657	-200,000	-0,017	0,102
-274,643	800,000	0,035	-0,086
-273,628	3,807	-0,109	0,058
-272,613	-200,000	0,004	0,182
-271,599	-33,886	0,083	0,033
-270,584	800,000	0,037	-0,091
-269,570	11,777	-0,037	0,021
-268,555	-100,007	0,047	0,008
-267,540	-200,000	-0,025	-0,135
-266,526	800,000	-0,031	-0,091
-265,511	-200,000	-0,011	-0,179
-264,497	-1,468	-0,060	0,030
-263,482	162,280	0,019	-0,019
-262,467	-25,903	0,099	0,042
-261,453	-31,563	-0,085	0,034
-260,438	569,882	-0,044	-0,078
-259,424	-68,014	-0,061	0,017
-258,409	144,007	0,053	-0,052
-257,395	-82,531	0,042	0,010
-256,380	469,463	0,032	-0,052
-255,365	-200,000	-0,006	0,093
-254,351	800,000	0,044	-0,121
-253,336	800,000	-0,037	0,112
-252,322	116,697	0,031	-0,027
-251,307	90,601	-0,019	-0,015
-250,292	-64,374	0,103	-0,030
-249,278	800,000	0,027	0,064
-248,263	800,000	-0,034	0,079
-247,249	-39,420	0,050	-0,019
-246,234	36,937	-0,137	-0,088
-245,219	800,000	0,037	-0,098
-244,205	-200,000	-0,023	-0,208
-243,190	251,880	0,038	0,048
-242,176	102,795	0,030	0,026
-241,161	-200,000	0,001	0,064
-240,146	666,665	-0,056	0,105
-239,132	31,030	0,096	0,059
-238,117	800,000	-0,021	-0,049
-237,103	-154,188	0,017	-0,001
-236,088	148,615	0,099	0,097
-235,073	-109,750	0,088	-0,013
-234,059	-200,000	0,012	0,062
-233,044	79,133	-0,136	0,106
-232,030	-200,000	-0,004	-0,107
-231,015	-200,000	0,019	-0,064
-230,000	377,573	0,043	-0,064
-228,986	-200,000	-0,004	0,225
-227,971	795,331	0,023	-0,047
-226,957	158,229	0,132	0,133
-225,942	-200,000	0,035	-0,124
-224,927	800,000	-0,012	-0,030
-223,913	-178,828	-0,075	0,001
-222,898	69,427	-0,067	-0,050
-221,884	-135,183	-0,024	0,002
-220,869	-95,152	0,071	0,014
-219,855	264,535	-0,064	0,081
-218,840	800,000	-0,009	0,025
-217,825	800,000	0,038	0,081
-216,811	-82,073	-0,158	-0,037
-215,796	287,188	-0,042	-0,056
-214,782	-165,991	-0,063	-0,002
-213,767	62,717	0,079	0,058
-212,752	433,290	0,066	0,104
-211,738	-39,656	0,064	-0,024
-210,723	-8,766	-0,061	-0,030
-209,709	-200,000	-0,034	-0,177
-208,694	-30,242	-0,112	0,046
-207,679	-134,981	-0,044	0,004
-206,665	31,418	0,047	0,029
-205,650	-200,000	-0,008	0,096
-204,636	800,000	0,009	0,020
-203,621	474,408	-0,053	0,088
-202,606	758,719	0,024	-0,047
-201,592	-182,674	-0,145	0,002
-200,577	-69,401	-0,088	0,024
-199,563	19,600	-0,022	0,013
-198,548	-75,637	-0,043	0,011
-197,533	280,301	0,038	0,050
-196,519	-200,000	-0,001	0,017
-195,504	435,309	0,043	0,068
-194,490	-167,642	0,086	0,002
-193,475	800,000	0,012	0,029
-192,460	14,694	0,020	0,011
-191,446	800,000	-0,044	0,090
-190,431	800,000	-0,031	0,091
-189,417	-40,164	0,021	0,008
-188,402	12,949	-0,027	-0,015
-187,387	177,695	0,068	0,072
-186,373	244,926	0,073	-0,089
-185,358	14,537	0,089	0,050
-184,344	46,743	0,011	-0,008
-183,329	800,000	0,052	0,130
-182,315	-200,000	0,007	0,080
-181,300	-34,511	-0,094	0,037
-180,285	177,522	0,113	-0,120
-179,271	-144,480	-0,027	0,002
-178,256	64,083	0,133	-0,097
-177,242	-36,371	-0,097	0,038
-176,227	-18,021	0,148	0,067
-175,212	-200,000	-0,003	0,045
-174,198	-30,593	0,090	0,037
-173,183	-200,000	0,017	-0,059
-172,169	800,000	-0,035	0,095
-171,154	800,000	-0,039	-0,103
-170,139	66,956	0,029	-0,022
-169,125	239,291	-0,081	-0,098
-168,110	-200,000	-0,020	0,067
-167,096	-200,000	0,003	0,123
-166,081	334,994	0,109	-0,154
-165,066	-101,775	-0,070	0,012
-164,052	-68,320	-0,128	-0,036
-163,037	-44,450	-0,098	-0,035
-162,023	495,755	-0,051	0,085
-161,008	800,000	-0,041	-0,102
-159,993	-120,092	-0,034	-0,004
-158,979	-111,072	-0,044	0,007
-157,964	-200,000	0,026	-0,093
-156,950	-200,000	-0,038	-0,135
-155,935	-200,000	0,006	-0,049
-154,920	-195,419	0,098	-0,001
-153,906	800,000	0,035	-0,109
-152,891	-200,000	0,016	0,154
-151,877	-80,648	0,031	0,007
-150,862	-26,589	-0,088	0,037
-149,847	390,621	0,023	-0,035
-148,833	-119,698	0,111	-0,014
-147,818	-34,164	-0,055	0,022
-146,804	435,535	0,119	0,188
-145,789	122,058	-0,040	0,036
-144,775	501,275	0,013	-0,021
-143,760	352,459	-0,099	-0,143
-142,745	-67,898	-0,107	-0,030
-141,731	-200,000	-0,015	0,075
-140,716	-200,000	0,006	-0,058
-139,702	-200,000	0,017	0,089
-138,687	800,000	0,048	-0,150
-137,672	52,247	-0,029	0,020
-136,658	96,556	-0,091	-0,075
-135,643	106,535	0,092	-0,079
-134,629	90,009	-0,113	-0,092
-133,614	161,470	0,101	-0,102
-132,599	326,981	0,064	0,089
-131,585	26,368	0,078	-0,047
-130,570	-0,354	-0,152	-0,078
-129,556	-74,911	0,034	-0,009
-128,541	-27,580	0,096	-0,040
-127,526	-200,000	-0,031	0,123
-126,512	-200,000	0,015	-0,056
-125,497	82,870	0,070	-0,055
-124,483	130,192	0,066	0,061
-123,468	800,000	-0,033	0,088
-122,453	316,060	0,027	-0,037
-121,439	-200,000	-0,032	-0,162
-120,424	-25,900	-0,143	0,061
-119,410	75,487	0,115	0,087
-118,395	248,323	0,025	0,031
