DTS Sentinel unit serial number:	SN410029Multiplexer serial number:	ORYXHardware model number:	OX2-SRSoftware version number:	ORYX F/W v4,00 Oryx Data Collector v3.7.2.0data status	okinstallation	B6 Nyhavnadifferential loss correction	single-endedforward channel	channel 2reverse channel	N/Adate	2023/12/10time	05:50:08forward acquisition time	300,00reverse acquisition time	0,00gamma	499,1914k internal	0,3124k external	0,3124temperature offset calibration	1,0000default loss term (dB/km)	0,3820temperature slope calibration	1,0000multiplexer offset coefficient	1,0000multiplexer slope coefficient	1,0000fibre end	0,00T internal ref (°C)	22,50T ext. ref 1 (°C)	6,48T ext. ref 2 (°C)	6,46length (m)	temperature (°C)	Stokes	anti-Stokes-744,400	394,867	0,077	-0,121
-743,385	27,312	-0,164	0,102
-742,371	-200,000	0,005	-0,106
-741,356	-87,182	-0,290	0,065
-740,342	258,911	0,017	0,021
-739,327	-169,237	-0,195	-0,005
-738,312	-200,000	0,005	-0,026
-737,298	-131,439	-0,303	0,029
-736,283	-200,000	0,031	-0,164
-735,269	10,785	-0,270	0,153
-734,254	770,086	0,074	-0,151
-733,239	-145,468	-0,384	-0,025
-732,225	-108,546	0,195	0,031
-731,210	76,661	0,187	-0,148
-730,196	-200,000	-0,013	-0,086
-729,181	188,146	-0,118	-0,131
-728,167	-200,000	-0,003	0,095
-727,152	-47,053	-0,222	0,080
-726,137	-174,344	-0,171	-0,004
-725,123	153,008	0,065	-0,066
-724,108	-200,000	0,011	-0,043
-723,094	15,575	-0,113	-0,066
-722,079	-11,864	-0,098	0,048
-721,064	60,416	0,138	-0,102
-720,050	800,000	0,018	0,041
-719,035	32,449	-0,062	-0,040
-718,021	-200,000	-0,010	0,093
-717,006	800,000	-0,013	-0,033
-715,991	800,000	-0,033	-0,072
-714,977	-20,084	-0,075	-0,034
-713,962	800,000	-0,035	-0,112
-712,948	800,000	0,021	-0,044
-711,933	-200,000	-0,018	-0,086
-710,918	445,130	0,043	-0,071
-709,904	-110,972	-0,009	0,001
-708,889	-200,000	0,017	-0,090
-707,875	287,380	-0,071	-0,095
-706,860	-200,000	0,025	-0,135
-705,845	629,253	-0,017	0,032
-704,831	-200,000	0,003	0,043
-703,816	-36,521	0,074	-0,030
-702,802	-178,803	-0,113	0,002
-701,787	43,176	-0,147	-0,099
-700,772	95,212	-0,052	-0,044
-699,758	-56,512	0,070	-0,023
-698,743	800,000	0,045	-0,129
-697,729	800,000	-0,050	0,118
-696,714	-81,748	0,116	-0,028
-695,699	-200,000	0,012	-0,059
-694,685	800,000	-0,031	-0,063
-693,670	-111,917	0,071	-0,011
-692,656	-118,938	-0,134	-0,017
-691,641	-147,232	0,051	0,003
-690,627	384,449	0,047	0,072
-689,612	800,000	-0,022	-0,063
-688,597	436,973	-0,071	0,116
-687,583	341,393	-0,120	-0,175
-686,568	19,722	-0,067	0,040
-685,554	195,178	-0,034	0,038
-684,539	-200,000	0,014	-0,050
-683,524	-170,471	0,108	-0,003
-682,510	299,459	-0,053	0,073
-681,495	529,163	-0,078	-0,138
-680,481	800,000	0,057	-0,145
-679,466	-140,979	0,109	0,008
-678,451	6,643	-0,103	0,057
-677,437	686,170	0,078	-0,152
-676,422	412,485	0,057	-0,090
-675,408	-200,000	0,034	-0,149
-674,393	-166,134	-0,036	0,001
-673,378	-100,680	0,085	-0,015
-672,364	-71,475	-0,084	0,023
-671,349	800,000	-0,034	-0,078
-670,335	-48,862	0,015	0,005
-669,320	623,567	-0,056	-0,105
-668,305	-93,223	-0,026	-0,005
-667,291	-114,437	-0,087	-0,012
-666,276	72,150	0,055	0,043
-665,262	44,945	-0,091	-0,062
-664,247	264,214	0,071	-0,093
-663,232	201,173	0,051	0,058
-662,218	-200,000	-0,033	0,113
-661,203	800,000	0,043	-0,111
-660,189	-200,000	0,019	-0,121
-659,174	-200,000	0,012	0,045
-658,159	60,015	-0,109	-0,080
-657,145	107,846	0,111	-0,098
-656,130	-91,086	-0,140	-0,030
-655,116	346,292	-0,058	-0,085
-654,101	-200,000	-0,018	-0,067
-653,086	191,579	-0,059	-0,066
-652,072	3,620	-0,140	0,076
-651,057	414,905	0,056	-0,089
-650,043	-26,575	-0,134	-0,058
-649,028	800,000	0,051	-0,114
-648,014	31,803	0,117	-0,074
-646,999	800,000	0,061	-0,136
-645,984	259,143	0,093	0,120
-644,970	-80,206	-0,103	-0,026
-643,955	278,679	-0,049	-0,065
-642,941	327,722	0,052	-0,074
-641,926	36,793	-0,089	-0,059
-640,911	-42,627	-0,080	-0,030
-639,897	3,574	0,078	0,042
-638,882	-39,833	0,079	0,030
-637,868	260,910	-0,109	-0,140
-636,853	141,582	-0,053	-0,052
-635,838	74,733	0,018	-0,014
-634,824	-131,938	-0,143	0,014
-633,809	-28,304	0,083	-0,035
-632,795	-176,018	-0,116	0,002
-631,780	-42,038	0,070	-0,027
-630,765	-40,104	-0,161	-0,062
-629,751	197,463	0,042	-0,048
-628,736	186,240	0,015	0,016
-627,722	389,480	0,032	0,049
-626,707	-200,000	0,017	-0,057
-625,692	-200,000	-0,006	-0,029
-624,678	-85,286	-0,100	0,023
-623,663	-144,040	0,120	0,008
-622,649	-136,113	-0,123	-0,011
-621,634	-200,000	-0,007	-0,026
-620,619	800,000	0,038	-0,096
-619,605	800,000	0,061	-0,132
-618,590	-105,724	-0,110	0,018
-617,576	230,579	0,090	0,109
-616,561	473,855	0,017	0,028
-615,546	-200,000	0,006	0,096
-614,532	642,013	0,048	-0,091
-613,517	-200,000	0,017	-0,085
-612,503	294,484	-0,061	0,083
-611,488	-113,799	-0,073	0,010
-610,474	-90,379	0,040	-0,008
-609,459	-46,734	-0,047	0,017
-608,444	-200,000	0,009	0,054
-607,430	356,787	0,027	-0,041
-606,415	800,000	-0,043	-0,098
-605,401	-35,648	0,094	0,038
-604,386	-200,000	0,021	0,117
-603,371	160,028	-0,078	0,081
-602,357	157,153	-0,013	0,013
-601,342	19,658	0,051	0,030
-600,328	800,000	-0,058	-0,136
-599,313	-200,000	-0,062	-0,234
-598,298	-58,598	-0,117	-0,038
-597,284	14,893	0,106	-0,061
-596,269	-3,454	0,053	0,027
-595,255	-68,573	-0,049	-0,014
-594,240	800,000	0,047	0,109
-593,225	-28,679	0,091	-0,039
-592,211	-42,746	-0,036	-0,014
-591,196	189,177	0,009	0,010
-590,182	-200,000	-0,004	0,111
-589,167	-200,000	0,012	-0,145
-588,152	-67,285	0,044	-0,013
-587,138	-136,030	-0,103	-0,009
-586,123	-200,000	-0,009	-0,095
-585,109	-4,334	-0,186	-0,095
-584,094	60,759	0,053	0,039
-583,079	800,000	0,033	0,103
-582,065	194,819	-0,062	-0,070
-581,050	654,379	-0,085	0,161
-580,036	15,632	0,073	-0,042
-579,021	-200,000	0,016	-0,071
-578,006	135,135	-0,026	0,025
-576,992	137,756	-0,044	-0,043
-575,977	-200,000	0,017	0,064
-574,963	-200,000	-0,002	-0,026
-573,948	205,128	0,048	-0,055
-572,934	800,000	0,025	-0,079
-571,919	800,000	-0,029	-0,095
-570,904	364,187	0,035	-0,052
-569,890	-86,664	0,122	-0,027
-568,875	-200,000	-0,010	-0,038
-567,861	-24,488	0,065	-0,029
-566,846	-200,000	-0,012	0,172
-565,831	112,546	-0,021	0,018
-564,817	-200,000	-0,007	-0,145
-563,802	800,000	-0,069	-0,144
-562,788	-200,000	-0,013	0,113
-561,773	11,271	0,096	0,054
-560,758	800,000	0,011	0,025
-559,744	-200,000	-0,013	0,090
-558,729	-6,719	-0,049	-0,025
-557,715	-93,428	-0,059	0,012
-556,700	-57,648	0,043	0,014
-555,685	-34,440	-0,163	-0,066
-554,671	54,773	-0,162	0,115
-553,656	228,806	-0,014	0,016
-552,642	-162,403	0,023	-0,001
-551,627	-22,194	0,054	0,024
-550,612	-147,026	-0,117	-0,007
-549,598	-12,705	-0,035	-0,017
-548,583	-98,474	-0,057	-0,011
-547,569	-189,966	-0,142	0,001
-546,554	-200,000	-0,007	0,047
-545,539	-28,715	0,247	0,105
-544,525	469,836	-0,035	-0,058
-543,510	-200,000	-0,024	-0,096
-542,496	8,720	-0,074	-0,041
-541,481	800,000	-0,023	0,051
-540,466	-200,000	-0,007	0,091
-539,452	-35,938	0,088	-0,035
-538,437	-200,000	0,000	-0,083
-537,423	800,000	0,022	-0,068
-536,408	-55,483	0,084	-0,028
-535,393	-87,601	-0,118	0,026
-534,379	162,037	-0,068	-0,070
-533,364	5,960	-0,073	-0,040
-532,350	299,034	-0,039	-0,053
-531,335	-106,200	0,023	-0,004
-530,321	-193,026	-0,022	0,000
-529,306	53,806	-0,023	0,016
-528,291	-71,179	0,086	-0,024
-527,277	-108,566	-0,176	0,028
-526,262	-200,000	-0,006	0,112
-525,248	181,866	0,087	-0,095
-524,233	-200,000	0,019	0,080
-523,218	-127,445	-0,132	-0,014
-522,204	-127,108	-0,025	-0,003
-521,189	136,305	0,042	-0,041
-520,175	40,256	0,091	0,061
-519,160	-3,384	-0,020	0,010
-518,145	-200,000	0,052	0,183
-517,131	276,004	-0,023	0,030
-516,116	77,697	0,082	-0,064
-515,102	288,813	0,061	0,081
-514,087	-54,214	0,143	-0,048
-513,072	-155,881	-0,167	0,008
-512,058	68,390	-0,089	-0,068
-511,043	-200,000	-0,002	0,006
-510,029	-72,441	0,055	0,015
-509,014	-200,000	-0,002	0,061
-507,999	259,529	0,006	0,008
-506,985	222,163	-0,011	-0,013
-505,970	-28,658	0,022	-0,009
-504,956	470,638	-0,041	-0,068
-503,941	110,724	0,068	0,061
-502,926	-60,649	0,082	0,026
-501,912	61,373	0,175	0,128
-500,897	407,036	0,032	-0,050
-499,883	9,214	-0,120	-0,067
-498,868	800,000	-0,023	-0,060
-497,853	318,796	-0,063	0,088
-496,839	519,901	0,012	0,021
-495,824	-35,802	0,115	0,046
-494,810	51,225	0,036	0,025
-493,795	-142,494	-0,112	0,008
-492,781	-200,000	-0,026	0,102
-491,766	129,927	-0,066	-0,063
-490,751	-76,769	-0,108	-0,028
-489,737	466,761	-0,030	-0,050
-488,722	161,797	0,025	-0,026
-487,708	310,852	-0,022	-0,030
-486,693	800,000	-0,063	0,135
-485,678	-102,731	-0,090	-0,016
-484,664	382,181	-0,045	-0,068
-483,649	800,000	-0,028	0,075
-482,635	-200,000	-0,010	-0,187
-481,620	-51,973	0,075	-0,026
-480,605	-16,481	0,134	0,063
-479,591	-200,000	-0,001	0,159
-478,576	-46,512	-0,032	0,011
-477,562	-141,191	-0,080	-0,006
-476,547	-200,000	0,024	-0,109
-475,532	-17,728	0,071	-0,033
-474,518	294,865	0,019	-0,026
-473,503	-139,750	-0,095	-0,007
-472,489	800,000	0,020	0,058
-471,474	-160,800	-0,150	0,006
-470,459	60,201	0,030	-0,022
-469,445	-76,984	-0,046	0,012
-468,430	-200,000	0,022	-0,090
-467,416	55,629	-0,011	0,008
-466,401	-200,000	0,005	0,124
-465,386	-91,649	0,052	-0,011
-464,372	800,000	0,009	0,026
-463,357	-200,000	0,003	0,034
-462,343	800,000	0,033	0,086
-461,328	-10,781	0,063	-0,030
-460,313	13,765	-0,052	-0,030
-459,299	83,427	-0,054	0,044
-458,284	-200,000	-0,008	-0,053
-457,270	800,000	-0,064	0,142
-456,255	523,560	-0,037	0,064
-455,241	-66,231	-0,040	-0,012
-454,226	-47,531	-0,086	0,031
-453,211	71,676	0,052	0,040
-452,197	-134,890	0,072	-0,006
-451,182	187,602	0,040	-0,044
-450,168	183,617	-0,032	0,035
-449,153	-200,000	-0,008	0,095
-448,138	57,126	-0,090	-0,065
-447,124	-200,000	0,005	0,015
-446,109	-200,000	-0,010	0,141
-445,095	624,108	0,046	-0,086
-444,080	-15,729	0,034	0,016
-443,065	-113,324	0,118	0,017
-442,051	410,013	-0,116	0,181
-441,036	378,761	-0,058	-0,087
-440,022	361,776	-0,066	-0,098
-439,007	-56,457	0,022	0,007
-437,992	-50,262	0,104	0,036
-436,978	69,659	-0,027	0,020
-435,963	800,000	0,054	0,166
-434,949	192,057	-0,036	-0,040
-433,934	87,986	0,052	-0,043
-432,919	-39,562	-0,052	-0,020
-431,905	800,000	-0,016	-0,043
-430,890	198,579	0,092	0,104
-429,876	-200,000	0,034	0,180
-428,861	-107,557	0,040	-0,006
-427,846	22,362	0,037	-0,022
-426,832	514,563	-0,018	-0,031
-425,817	800,000	-0,023	-0,064
-424,803	-76,584	-0,126	-0,032
-423,788	23,966	0,119	0,072
-422,773	-200,000	-0,027	-0,089
-421,759	-132,721	0,091	0,008
-420,744	-87,671	-0,090	0,020
-419,730	132,209	-0,102	0,097
-418,715	800,000	0,043	0,139
-417,701	227,878	0,066	-0,079
-416,686	562,353	0,059	-0,106
-415,671	-200,000	0,010	0,084
-414,657	800,000	0,019	0,039
-413,642	181,796	0,018	-0,019
-412,628	233,644	0,098	-0,119
-411,613	-200,000	-0,009	-0,066
-410,598	157,942	0,098	-0,100
-409,584	171,427	-0,087	-0,092
-408,569	-200,000	0,002	0,082
-407,555	-155,253	0,138	-0,007
-406,540	13,838	-0,121	-0,069
-405,525	800,000	-0,036	0,085
-404,511	-200,000	0,002	-0,090
-403,496	71,563	-0,156	-0,119
-402,482	-80,092	-0,068	0,017
-401,467	-200,000	0,005	-0,044
-400,452	800,000	-0,030	0,068
-399,438	344,003	0,042	0,061
-398,423	181,917	0,093	0,101
-397,409	435,116	-0,073	-0,117
-396,394	800,000	0,008	0,020
-395,379	-200,000	0,032	0,169
-394,365	39,926	0,053	0,035
-393,350	-200,000	0,020	0,102
-392,336	-200,000	-0,028	0,149
-391,321	-127,812	0,098	-0,010
-390,306	-200,000	-0,013	-0,068
-389,292	-200,000	-0,013	-0,071
-388,277	-200,000	0,005	0,040
-387,263	757,184	0,039	0,078
-386,248	-200,000	0,006	0,077
-385,233	800,000	-0,032	-0,069
-384,219	-63,811	0,133	0,040
-383,204	-200,000	-0,005	0,050
-382,190	-200,000	-0,010	-0,054
-381,175	-48,823	-0,114	-0,040
-380,160	800,000	-0,029	-0,067
-379,146	-134,593	-0,084	0,007
-378,131	225,340	0,051	0,061
-377,117	685,209	0,033	0,064
-376,102	200,545	0,025	-0,028
-375,088	5,240	-0,166	0,090
-374,073	-54,914	-0,087	-0,029
-373,058	487,412	-0,035	0,059
-372,044	-31,803	-0,052	0,021
-371,029	800,000	0,033	-0,091
-370,015	256,078	0,039	0,049
-369,000	247,761	0,021	0,027
-367,985	-200,000	0,004	-0,138
-366,971	47,832	0,112	0,077
-365,956	494,703	-0,015	0,026
-364,942	-75,225	0,105	0,027
-363,927	-200,000	0,007	0,065
-362,912	230,651	0,047	-0,056
-361,898	50,749	-0,042	-0,029
-360,883	-200,000	-0,023	0,078
-359,869	-200,000	-0,007	0,216
-358,854	-200,000	0,019	0,089
-357,839	5,699	0,028	0,015
-356,825	630,611	0,031	0,058
-355,810	-53,246	0,140	-0,047
-354,796	-200,000	-0,006	-0,106
-353,781	-101,659	-0,073	-0,013
-352,766	144,721	0,051	0,050
-351,752	-57,715	0,199	-0,064
-350,737	-200,000	-0,009	0,034
-349,723	-123,578	-0,063	0,007
-348,708	40,313	-0,071	-0,047
-347,693	800,000	-0,031	0,072
-346,679	91,716	0,044	0,036
-345,664	-200,000	-0,026	-0,188
-344,650	800,000	-0,032	0,068
-343,635	800,000	-0,014	-0,043
-342,620	-22,647	0,115	0,051
-341,606	-200,000	0,003	-0,031
-340,591	311,097	-0,046	-0,063
-339,577	179,397	-0,063	-0,068
-338,562	-107,897	0,176	-0,028
-337,548	-54,387	-0,158	-0,052
-336,533	230,880	0,031	0,037
-335,518	-200,000	-0,004	0,029
-334,504	-66,828	0,074	0,021
-333,489	800,000	-0,047	0,107
-332,475	32,079	-0,136	-0,086
-331,460	-56,080	-0,058	-0,019
-330,445	-163,341	0,115	0,004
-329,431	-145,781	0,098	0,006
-328,416	112,929	0,125	0,111
-327,402	-200,000	-0,008	0,067
-326,387	800,000	-0,043	0,111
-325,372	96,578	0,029	-0,024
-324,358	33,357	0,129	-0,082
-323,343	-200,000	0,005	-0,028
-322,329	-57,400	0,099	-0,032
-321,314	-200,000	0,019	0,101
-320,299	539,940	0,065	0,114
-319,285	800,000	0,033	0,090
-318,270	43,365	0,037	0,025
-317,256	549,743	-0,084	0,148
-316,241	-1,680	-0,099	0,051
-315,226	425,536	0,076	0,120
-314,212	381,463	-0,079	0,119
-313,197	202,339	0,078	0,088
-312,183	44,768	-0,016	0,011
-311,168	20,644	-0,046	-0,027
-310,153	11,719	-0,083	-0,046
-309,139	-6,690	-0,061	-0,030
-308,124	-200,000	-0,024	0,088
-307,110	-170,934	-0,082	-0,002
-306,095	-113,341	0,115	0,016
-305,080	-200,000	0,017	0,104
-304,066	396,216	-0,027	-0,042
-303,051	393,510	-0,033	0,051
-302,037	-90,257	-0,054	0,011
-301,022	-117,959	0,157	-0,020
-300,008	-200,000	0,008	0,056
-298,993	-154,944	0,099	0,005
-297,978	85,532	-0,015	-0,012
-296,964	-155,024	0,131	0,006
-295,949	800,000	-0,036	-0,097
-294,935	-74,387	-0,089	-0,023
-293,920	800,000	0,046	-0,098
-292,905	-38,708	0,192	0,074
-291,891	-84,866	0,060	0,014
-290,876	-0,897	-0,045	0,023
-289,862	-102,768	-0,080	-0,014
-288,847	267,048	-0,017	0,022
-287,832	6,112	-0,051	0,028
-286,818	800,000	0,104	-0,212
-285,803	64,870	0,061	-0,045
-284,789	800,000	-0,014	0,032
-283,774	-92,008	0,117	-0,024
-282,759	71,398	0,088	-0,066
-281,745	800,000	0,037	-0,084
-280,730	137,393	-0,065	-0,062
-279,716	-75,854	-0,069	-0,018
-278,701	-162,546	0,028	0,001
-277,686	-169,468	0,085	0,002
-276,672	174,147	0,048	0,051
-275,657	-61,342	-0,119	0,037
-274,643	718,624	-0,063	0,123
-273,628	-84,530	-0,054	0,012
-272,613	449,433	-0,052	-0,084
-271,599	212,221	-0,026	0,030
-270,584	-107,752	0,071	0,011
-269,570	800,000	0,066	0,142
-268,555	-88,189	-0,153	-0,033
-267,540	-71,169	-0,069	0,019
-266,526	-40,291	-0,154	-0,058
-265,511	800,000	0,077	-0,162
-264,497	-200,000	0,017	0,056
-263,482	72,474	0,128	0,097
-262,467	-200,000	-0,020	0,206
-261,453	-42,885	-0,045	-0,017
-260,438	-56,411	-0,108	-0,035
-259,424	74,356	0,058	0,045
-258,409	-130,080	0,123	-0,012
-257,395	35,020	-0,031	-0,020
-256,380	753,394	-0,043	-0,086
-255,365	32,779	0,125	0,079
-254,351	485,373	0,051	-0,085
-253,336	800,000	-0,033	-0,088
-252,322	537,304	0,090	-0,158
-251,307	-22,806	0,109	0,048
-250,292	344,559	-0,016	0,022
-249,278	206,227	0,063	0,072
-248,263	-142,901	0,033	-0,002
-247,249	-200,000	0,038	0,172
-246,234	214,032	-0,053	-0,062
-245,219	-79,955	-0,068	-0,016
-244,205	50,689	-0,017	0,012
-243,190	800,000	-0,017	0,054
-242,176	259,387	0,073	0,093
-241,161	122,524	0,021	0,019
-240,146	-200,000	0,007	-0,133
-239,132	245,281	-0,096	-0,119
-238,117	-200,000	-0,005	-0,036
-237,103	-200,000	0,020	-0,066
-236,088	643,108	0,037	-0,070
-235,073	-200,000	0,010	-0,091
-234,059	-154,767	0,097	-0,005
-233,044	2,963	-0,034	-0,018
-232,030	86,792	-0,033	-0,027
-231,015	-76,767	0,021	-0,005
-230,000	800,000	-0,045	-0,108
-228,986	800,000	0,058	-0,137
-227,971	800,000	0,042	0,107
-226,957	-132,903	-0,177	0,016
-225,942	178,053	0,087	-0,093
-224,927	-200,000	0,001	-0,021
-223,913	-38,937	-0,097	0,037
-222,898	232,092	-0,058	0,069
-221,884	78,380	0,013	0,010
-220,869	797,705	0,035	-0,071
-219,855	-200,000	-0,008	-0,056
-218,840	-200,000	-0,037	0,135
-217,825	-10,202	0,093	0,045
-216,811	-183,277	-0,081	-0,001
-215,796	800,000	0,041	-0,091
-214,782	453,998	0,049	-0,080
-213,767	-6,794	0,080	-0,039
-212,752	800,000	0,108	-0,223
-211,738	6,731	0,069	0,038
-210,723	800,000	-0,042	0,128
-209,709	-40,662	-0,140	-0,053
-208,694	-32,708	-0,009	-0,004
-207,679	800,000	0,011	0,028
-206,665	800,000	-0,019	0,045
-205,650	-200,000	-0,000	0,102
-204,636	61,007	0,097	0,070
-203,621	-65,612	-0,048	0,014
-202,606	-112,189	0,088	0,013
-201,592	-31,675	-0,059	-0,024
-200,577	-200,000	0,009	-0,059
-199,563	-200,000	0,010	0,057
-198,548	-200,000	-0,038	0,130
-197,533	33,216	-0,055	-0,035
-196,519	604,240	0,095	-0,174
-195,504	-200,000	0,015	-0,121
-194,490	279,032	0,059	0,077
-193,475	25,830	-0,127	-0,077
-192,460	-39,558	-0,020	0,008
-191,446	800,000	0,040	-0,092
-190,431	-200,000	0,030	-0,103
-189,417	-200,000	0,000	-0,071
-188,402	28,043	-0,090	0,055
-187,387	-112,363	-0,177	0,026
-186,373	293,658	-0,063	-0,084
-185,358	-67,180	0,139	0,040
-184,344	800,000	0,031	0,082
-183,329	-200,000	0,005	0,054
-182,315	-64,883	-0,089	-0,026
-181,300	-16,353	-0,073	0,034
-180,285	570,546	-0,034	-0,061
-179,271	-200,000	0,014	0,081
-178,256	28,532	0,103	0,063
-177,242	-200,000	0,015	0,063
-176,227	27,472	0,177	-0,108
-175,212	462,356	-0,016	-0,026
-174,198	-200,000	0,000	0,021
-173,183	41,976	-0,020	-0,013
-172,169	-109,225	-0,038	-0,006
-171,154	42,494	0,040	0,026
-170,139	202,874	0,041	-0,046
-169,125	-36,647	0,148	0,058
-168,110	344,529	0,106	-0,152
-167,096	-4,165	-0,181	0,091
-166,081	800,000	-0,072	-0,167
-165,066	39,979	-0,074	-0,048
-164,052	225,119	-0,026	-0,030
-163,037	-129,648	-0,178	0,018
-162,023	73,148	-0,074	0,056
-161,008	91,057	-0,057	-0,046
-159,993	256,820	0,095	0,119
-158,979	43,229	-0,034	-0,022
-157,964	800,000	-0,046	-0,111
-156,950	117,545	0,084	0,075
-155,935	482,010	-0,020	-0,033
-154,920	461,679	0,067	-0,109
-153,906	800,000	0,034	0,070
-152,891	-200,000	-0,021	0,100
-151,877	626,622	-0,035	0,065
-150,862	-200,000	0,015	-0,108
-149,847	43,470	-0,031	-0,021
-148,833	192,905	-0,118	-0,130
-147,818	-161,911	0,029	0,001
-146,804	-127,060	-0,040	0,004
-145,789	-200,000	-0,019	0,066
-144,775	-56,700	0,122	-0,039
-143,760	653,112	0,043	-0,080
-142,745	37,345	-0,137	0,088
-141,731	800,000	0,027	0,079
-140,716	-200,000	-0,010	0,080
-139,702	800,000	0,013	0,027
-138,687	155,816	0,043	-0,043
-137,672	291,789	-0,083	0,111
-136,658	190,967	-0,045	-0,049
-135,643	60,202	-0,106	-0,076
-134,629	496,512	-0,025	-0,041
-133,614	-122,150	-0,110	0,013
-132,599	-50,390	-0,121	0,041
-131,585	-23,915	0,096	0,042
-130,570	3,596	0,055	0,029
-129,556	-21,477	0,107	-0,047
-128,541	69,606	-0,100	-0,075
-127,526	-102,753	-0,078	0,013
-126,512	-19,914	0,106	0,048
-125,497	-132,660	0,125	0,012
-124,483	-50,752	0,035	0,012
-123,468	800,000	-0,084	-0,176
-122,453	265,575	0,040	-0,051
-121,439	127,303	-0,071	-0,065
-120,424	800,000	0,047	0,098
-119,410	179,907	0,082	0,088
