DTS Sentinel unit serial number:	SN410029Multiplexer serial number:	ORYXHardware model number:	OX2-SRSoftware version number:	ORYX F/W v4,00 Oryx Data Collector v3.7.2.0data status	okinstallation	B6 Nyhavnadifferential loss correction	single-endedforward channel	channel 2reverse channel	N/Adate	2023/12/10time	22:40:08forward acquisition time	300,00reverse acquisition time	0,00gamma	499,1914k internal	0,3123k external	0,3123temperature offset calibration	1,0000default loss term (dB/km)	0,3820temperature slope calibration	1,0000multiplexer offset coefficient	1,0000multiplexer slope coefficient	1,0000fibre end	0,00T internal ref (°C)	22,37T ext. ref 1 (°C)	6,17T ext. ref 2 (°C)	6,18length (m)	temperature (°C)	Stokes	anti-Stokes-744,400	-200,000	-0,010	0,066
-743,385	118,355	-0,109	0,100
-742,371	-200,000	0,025	-0,169
-741,356	229,029	-0,142	0,173
-740,342	-1,832	0,108	-0,057
-739,327	-104,477	-0,206	0,035
-738,312	-36,913	-0,089	0,035
-737,298	-43,546	-0,213	0,080
-736,283	800,000	-0,051	-0,116
-735,269	-48,536	-0,212	0,075
-734,254	800,000	0,019	0,050
-733,239	-152,034	-0,375	-0,020
-732,225	-73,897	0,104	-0,028
-731,210	-142,081	-0,125	-0,009
-730,196	292,815	0,049	0,067
-729,181	-200,000	0,007	-0,055
-728,167	93,170	0,070	0,059
-727,152	-200,000	-0,001	-0,062
-726,137	-54,032	-0,064	0,022
-725,123	299,914	0,028	0,038
-724,108	-8,676	-0,108	-0,054
-723,094	-200,000	0,019	-0,118
-722,079	-200,000	0,002	0,026
-721,064	115,672	-0,027	-0,025
-720,050	-46,980	0,099	-0,036
-719,035	95,471	-0,085	-0,072
-718,021	800,000	-0,035	0,082
-717,006	415,129	0,034	-0,053
-715,991	13,950	-0,107	-0,062
-714,977	289,403	-0,033	-0,045
-713,962	-45,197	-0,092	0,034
-712,948	116,004	0,102	0,093
-711,933	-200,000	-0,006	-0,040
-710,918	-70,214	-0,088	0,025
-709,904	-2,353	-0,041	-0,021
-708,889	292,741	0,091	0,124
-707,875	451,235	0,019	-0,032
-706,860	-3,666	0,024	0,012
-705,845	387,116	-0,080	-0,123
-704,831	91,584	0,040	-0,033
-703,816	150,302	-0,027	0,027
-702,802	45,028	0,105	0,072
-701,787	99,035	0,124	-0,107
-700,772	800,000	-0,056	-0,153
-699,758	756,394	-0,051	-0,103
-698,743	-200,000	0,036	-0,161
-697,729	-200,000	0,006	0,059
-696,714	-164,379	-0,092	-0,003
-695,699	800,000	-0,043	0,099
-694,685	-112,465	-0,091	-0,013
-693,670	-105,991	-0,096	-0,016
-692,656	-139,021	-0,085	0,007
-691,641	-200,000	0,018	0,089
-690,627	-78,545	-0,103	0,026
-689,612	179,230	-0,093	-0,101
-688,597	-56,932	-0,066	0,021
-687,583	-66,216	-0,047	-0,014
-686,568	200,324	-0,096	-0,109
-685,554	-160,261	-0,119	-0,005
-684,539	19,693	-0,008	-0,005
-683,524	-142,661	0,047	0,003
-682,510	94,248	-0,192	0,162
-681,495	412,505	0,035	0,055
-680,481	-130,686	-0,095	0,009
-679,466	761,521	-0,089	-0,180
-678,451	800,000	-0,028	-0,069
-677,437	-119,370	-0,080	-0,010
-676,422	21,400	0,060	-0,036
-675,408	-200,000	0,011	0,073
-674,393	2,089	-0,072	0,038
-673,378	800,000	-0,062	-0,151
-672,364	-200,000	-0,013	-0,056
-671,349	34,560	-0,147	-0,096
-670,335	800,000	-0,023	-0,065
-669,320	772,873	-0,018	0,036
-668,305	-56,861	0,008	-0,003
-667,291	122,077	-0,086	-0,080
-666,276	-200,000	-0,007	-0,071
-665,262	-84,347	-0,099	-0,023
-664,247	-37,361	-0,112	0,044
-663,232	-157,334	0,168	0,007
-662,218	800,000	-0,018	0,047
-661,203	-200,000	0,041	-0,138
-660,189	800,000	-0,038	0,099
-659,174	35,386	-0,119	-0,077
-658,159	100,558	-0,116	-0,100
-657,145	42,726	-0,077	0,052
-656,130	-80,537	0,089	-0,022
-655,116	-24,710	-0,042	-0,018
-654,101	-18,345	0,097	0,045
-653,086	-200,000	-0,020	0,070
-652,072	-56,029	-0,073	0,024
-651,057	193,689	0,057	-0,064
-650,043	386,139	-0,069	-0,106
-649,028	-117,848	-0,081	-0,011
-648,014	94,194	0,086	0,073
-646,999	39,324	0,111	-0,073
-645,984	452,266	-0,009	-0,015
-644,970	-111,621	-0,079	-0,012
-643,955	30,831	-0,073	0,047
-642,941	-200,000	0,035	0,117
-641,926	365,073	-0,085	0,128
-640,911	85,186	0,048	0,039
-639,897	-200,000	-0,029	0,095
-638,882	131,662	-0,068	-0,065
-637,868	684,598	0,033	0,064
-636,853	-52,743	0,056	0,019
-635,838	30,690	-0,073	0,046
-634,824	426,714	-0,065	-0,104
-633,809	-71,590	-0,058	-0,016
-632,795	-36,296	-0,087	-0,035
-631,780	-200,000	0,027	0,177
-630,765	-167,241	0,075	-0,002
-629,751	514,727	-0,094	-0,163
-628,736	-57,173	-0,158	-0,051
-627,722	-85,687	0,080	-0,018
-626,707	800,000	-0,038	0,103
-625,692	-140,390	0,075	0,006
-624,678	338,846	-0,033	-0,048
-623,663	-29,427	-0,020	0,009
-622,649	-200,000	0,014	-0,119
-621,634	82,816	-0,094	0,076
-620,619	623,800	-0,041	-0,078
-619,605	800,000	-0,021	-0,068
-618,590	-200,000	0,007	-0,037
-617,576	17,079	-0,042	0,025
-616,561	-200,000	-0,010	-0,037
-615,546	-2,158	0,079	0,041
-614,532	-200,000	-0,005	-0,173
-613,517	47,757	-0,026	0,018
-612,503	424,610	-0,088	-0,141
-611,488	-152,776	-0,045	0,002
-610,474	-158,364	-0,078	-0,003
-609,459	-200,000	-0,007	0,057
-608,444	383,951	-0,046	-0,070
-607,430	460,143	-0,055	0,091
-606,415	-200,000	0,006	0,088
-605,401	-36,884	-0,045	0,018
-604,386	580,027	0,016	0,029
-603,371	-121,517	0,127	0,016
-602,357	-60,527	0,133	-0,042
-601,342	800,000	0,043	0,133
-600,328	438,301	-0,122	-0,197
-599,313	145,722	-0,059	-0,059
-598,298	-40,461	-0,062	-0,024
-597,284	626,761	0,034	0,064
-596,269	-200,000	0,022	0,119
-595,255	800,000	-0,048	0,102
-594,240	-98,569	0,075	0,014
-593,225	-200,000	0,011	-0,105
-592,211	-200,000	-0,012	-0,126
-591,196	-200,000	-0,003	0,045
-590,182	-104,264	0,104	-0,018
-589,167	-18,903	0,107	-0,049
-588,152	-82,584	-0,108	-0,026
-587,138	286,398	-0,096	0,129
-586,123	503,702	-0,056	-0,096
-585,109	279,605	0,053	-0,071
-584,094	51,082	-0,092	0,064
-583,079	4,236	0,092	0,050
-582,065	-200,000	-0,015	0,256
-581,050	-160,962	0,118	0,005
-580,036	800,000	-0,035	0,081
-579,021	800,000	-0,030	-0,063
-578,006	795,921	0,081	-0,167
-576,992	-79,875	-0,171	-0,042
-575,977	800,000	0,021	-0,048
-574,963	-200,000	-0,025	-0,159
-573,948	164,808	-0,065	0,068
-572,934	-156,085	0,105	0,005
-571,919	11,354	-0,085	-0,048
-570,904	492,330	-0,026	-0,044
-569,890	-200,000	-0,034	-0,141
-568,875	-200,000	0,038	0,146
-567,861	800,000	0,032	0,067
-566,846	-41,981	0,068	-0,026
-565,831	46,444	-0,123	0,085
-564,817	-36,785	-0,033	0,013
-563,802	-93,582	-0,066	0,013
-562,788	800,000	-0,020	-0,058
-561,773	-200,000	-0,007	-0,050
-560,758	193,110	0,142	-0,160
-559,744	203,686	0,026	-0,030
-558,729	-200,000	0,005	-0,041
-557,715	800,000	0,022	0,063
-556,700	216,030	-0,039	0,046
-555,685	47,549	-0,052	-0,036
-554,671	-200,000	-0,001	-0,163
-553,656	-117,616	0,105	-0,014
-552,642	48,282	0,105	0,073
-551,627	616,594	-0,049	0,092
-550,612	-200,000	-0,010	-0,049
-549,598	-200,000	-0,005	-0,026
-548,583	-61,187	-0,096	0,030
-547,569	800,000	0,043	0,121
-546,554	231,664	0,092	-0,112
-545,539	249,133	0,106	-0,134
-544,525	-63,652	0,014	-0,004
-543,510	127,786	0,041	0,039
-542,496	319,534	0,057	0,081
-541,481	-200,000	-0,187	0,000
-540,466	261,234	0,061	-0,078
-539,452	246,287	0,052	0,065
-538,437	-13,790	0,042	0,020
-537,423	44,300	-0,040	-0,027
-536,408	-111,242	-0,190	0,028
-535,393	800,000	-0,013	0,038
-534,379	-200,000	-0,001	-0,095
-533,364	-54,395	-0,090	-0,030
-532,350	-200,000	-0,011	0,042
-531,335	152,242	0,091	0,092
-530,321	201,678	0,055	0,062
-529,306	785,432	0,020	0,041
-528,291	264,469	-0,087	-0,112
-527,277	317,066	-0,056	-0,078
-526,262	-31,941	-0,078	-0,032
-525,248	-7,866	-0,127	-0,063
-524,233	565,848	0,029	0,052
-523,218	-179,743	0,163	0,003
-522,204	62,301	0,154	0,113
-521,189	800,000	0,013	0,038
-520,175	496,519	0,073	-0,124
-519,160	-157,262	-0,168	-0,007
-518,145	85,380	0,039	-0,032
-517,131	-105,560	-0,049	0,008
-516,116	-135,478	-0,082	-0,007
-515,102	-25,832	-0,038	0,016
-514,087	128,968	-0,022	0,021
-513,072	-200,000	-0,002	-0,103
-512,058	800,000	0,095	-0,201
-511,043	800,000	-0,067	0,170
-510,029	305,457	0,073	0,100
-509,014	277,888	-0,039	-0,051
-507,999	160,818	0,089	-0,092
-506,985	-88,960	-0,159	-0,035
-505,970	-86,086	0,052	0,012
-504,956	-39,431	-0,078	0,030
-503,941	-200,000	0,012	0,043
-502,926	800,000	-0,049	0,131
-501,912	339,899	0,084	0,121
-500,897	800,000	0,029	-0,087
-499,883	421,626	-0,023	0,036
-498,868	-44,986	-0,024	-0,009
-497,853	-177,874	-0,127	-0,002
-496,839	800,000	-0,017	0,036
-495,824	800,000	0,046	0,095
-494,810	-125,540	0,130	-0,014
-493,795	800,000	0,036	0,088
-492,781	534,905	0,035	0,062
-491,766	800,000	-0,022	-0,049
-490,751	-100,811	0,110	-0,020
-489,737	119,437	0,053	-0,048
-488,722	-72,246	-0,084	-0,023
-487,708	-29,653	0,128	-0,054
-486,693	800,000	-0,016	0,038
-485,678	209,176	-0,048	-0,055
-484,664	449,874	0,013	-0,021
-483,649	245,173	0,092	-0,115
-482,635	-13,140	-0,099	-0,047
-481,620	88,884	0,073	-0,060
-480,605	800,000	0,030	0,086
-479,591	-121,622	-0,062	0,008
-478,576	403,268	-0,032	0,049
-477,562	-112,293	-0,076	-0,011
-476,547	-49,575	-0,119	0,041
-475,532	-200,000	0,001	-0,012
-474,518	4,517	-0,107	0,057
-473,503	19,128	0,042	-0,025
-472,489	-131,132	-0,074	-0,007
-471,474	260,609	0,097	0,125
-470,459	-200,000	0,005	-0,032
-469,445	-0,039	-0,096	-0,050
-468,430	-81,162	0,223	-0,054
-467,416	-200,000	0,006	0,098
-466,401	-200,000	-0,029	-0,159
-465,386	-200,000	0,010	-0,050
-464,372	145,287	-0,063	-0,062
-463,357	759,732	0,019	-0,038
-462,343	800,000	-0,021	-0,066
-461,328	580,259	0,031	0,057
-460,313	-113,387	0,183	0,026
-459,299	538,374	-0,060	0,106
-458,284	-124,654	-0,050	0,006
-457,270	-200,000	0,020	0,106
-456,255	-128,284	-0,054	-0,006
-455,241	-200,000	-0,027	-0,181
-454,226	-200,000	-0,002	-0,074
-453,211	-165,574	0,061	0,002
-452,197	-200,000	0,011	-0,089
-451,182	24,434	0,068	-0,041
-450,168	83,880	-0,100	0,081
-449,153	-57,018	0,072	0,023
-448,138	35,010	-0,197	-0,127
-447,124	-200,000	-0,057	-0,205
-446,109	-12,293	0,057	-0,028
-445,095	212,609	0,017	-0,020
-444,080	-24,362	0,114	-0,050
-443,065	276,679	0,055	-0,072
-442,051	-200,000	-0,005	0,039
-441,036	-168,118	0,086	-0,002
-440,022	-4,193	-0,092	-0,047
-439,007	-200,000	-0,007	0,027
-437,992	164,139	0,057	-0,059
-436,978	-124,983	-0,050	0,006
-435,963	247,872	-0,032	0,040
-434,949	263,306	0,038	-0,049
-433,934	-73,735	0,064	-0,017
-432,919	363,387	0,049	0,073
-431,905	-22,866	-0,086	0,038
-430,890	-95,936	-0,027	-0,005
-429,876	191,034	-0,061	0,068
-428,861	-72,699	0,051	-0,014
-427,846	-126,648	-0,087	0,009
-426,832	-23,147	0,092	-0,041
-425,817	114,753	-0,081	0,072
-424,803	339,177	0,076	-0,109
-423,788	-200,000	0,037	-0,127
-422,773	-104,164	-0,048	0,008
-421,759	-60,472	0,106	0,033
-420,744	-200,000	-0,015	-0,075
-419,730	-200,000	-0,012	-0,144
-418,715	800,000	-0,028	-0,085
-417,701	-99,034	-0,034	-0,006
-416,686	190,804	-0,051	0,057
-415,671	370,280	0,108	0,162
-414,657	232,533	0,090	0,109
-413,642	-109,973	-0,168	-0,026
-412,628	10,970	0,048	0,027
-411,613	73,450	-0,126	0,097
-410,598	800,000	-0,013	0,028
-409,584	60,047	0,015	-0,011
-408,569	730,702	-0,033	0,066
-407,555	140,894	0,059	0,058
-406,540	-50,562	-0,101	-0,035
-405,525	-200,000	-0,012	-0,055
-404,511	187,615	-0,025	0,028
-403,496	-200,000	0,012	-0,072
-402,482	800,000	-0,029	-0,086
-401,467	-200,000	0,007	0,032
-400,452	-200,000	-0,003	0,122
-399,438	45,954	0,069	0,047
-398,423	-87,656	-0,131	0,029
-397,409	214,415	0,064	0,075
-396,394	-58,053	0,069	-0,022
-395,379	36,134	0,093	-0,060
-394,365	136,636	-0,050	-0,048
-393,350	-200,000	-0,009	0,081
-392,336	-114,386	0,020	0,003
-391,321	-200,000	-0,016	0,205
-390,306	12,733	-0,082	-0,047
-389,292	800,000	0,032	-0,077
-388,277	-16,460	-0,061	0,028
-387,263	-43,390	0,175	0,065
-386,248	-123,158	-0,044	-0,005
-385,233	20,106	-0,140	0,083
-384,219	800,000	0,050	0,120
-383,204	800,000	0,038	-0,097
-382,190	800,000	-0,045	-0,103
-381,175	8,938	-0,168	0,093
-380,160	-200,000	0,021	0,084
-379,146	636,860	0,042	0,078
-378,131	-200,000	0,023	0,151
-377,117	-138,365	0,153	-0,012
-376,102	-200,000	-0,007	0,048
-375,088	-8,479	-0,094	0,046
-374,073	800,000	0,048	-0,113
-373,058	-200,000	0,002	-0,074
-372,044	207,897	-0,096	0,110
-371,029	-14,633	0,181	-0,085
-370,015	77,102	-0,080	0,062
-369,000	-82,092	-0,030	-0,007
-367,985	150,270	-0,061	-0,061
-366,971	-200,000	0,031	0,192
-365,956	-200,000	0,025	0,084
-364,942	400,825	0,029	0,045
-363,927	109,736	-0,141	0,124
-362,912	-2,372	0,076	0,039
-361,898	800,000	-0,057	-0,125
-360,883	161,805	-0,095	-0,098
-359,869	-200,000	0,009	-0,082
-358,854	-200,000	0,008	-0,087
-357,839	-200,000	-0,030	-0,110
-356,825	-200,000	0,017	0,056
-355,810	685,806	0,022	0,043
-354,796	-26,524	0,076	-0,033
-353,781	183,767	0,043	-0,047
-352,766	-200,000	-0,003	-0,073
-351,752	8,435	-0,029	0,016
-350,737	-126,005	0,173	-0,019
-349,723	-13,655	0,136	-0,064
-348,708	-83,680	0,029	0,007
-347,693	800,000	0,046	0,135
-346,679	279,930	-0,067	-0,088
-345,664	-200,000	-0,028	-0,122
-344,650	201,479	-0,036	-0,041
-343,635	-200,000	0,010	-0,034
-342,620	-61,732	-0,072	0,022
-341,606	800,000	-0,021	-0,068
-340,591	204,216	-0,051	0,058
-339,577	-60,842	-0,053	-0,016
-338,562	636,351	-0,039	0,072
-337,548	-200,000	0,020	0,076
-336,533	-34,755	0,159	0,064
-335,518	-124,462	0,052	-0,006
-334,504	-200,000	-0,031	-0,149
-333,489	110,639	0,025	0,022
-332,475	800,000	-0,021	-0,060
-331,460	-17,775	-0,087	-0,040
-330,445	-99,216	-0,110	-0,020
-329,431	800,000	0,041	0,086
-328,416	-139,737	0,020	-0,002
-327,402	-61,945	-0,033	-0,010
-326,387	-103,787	-0,050	0,008
-325,372	-42,331	-0,172	0,064
-324,358	-107,100	-0,071	-0,011
-323,343	58,144	-0,062	-0,045
-322,329	174,291	0,037	0,040
-321,314	59,701	0,079	-0,057
-320,299	609,570	-0,006	0,011
-319,285	452,349	0,037	-0,060
-318,270	9,236	0,129	-0,071
-317,256	800,000	-0,029	-0,066
-316,241	196,442	0,095	0,106
-315,226	285,399	-0,086	0,113
-314,212	-116,913	-0,142	0,019
-313,197	46,955	0,042	-0,028
-312,183	-58,103	0,080	-0,025
-311,168	18,421	-0,053	-0,031
-310,153	-200,000	0,011	0,041
-309,139	57,230	-0,028	0,020
-308,124	-136,250	0,035	0,003
-307,110	164,620	-0,040	-0,041
-306,095	-200,000	0,000	0,007
-305,080	-101,360	-0,079	0,014
-304,066	389,509	0,062	0,095
-303,051	-184,696	-0,069	-0,001
-302,037	-200,000	0,028	-0,147
-301,022	169,646	0,057	0,060
-300,008	179,701	0,137	0,147
-298,993	-200,000	-0,008	0,082
-297,978	732,147	0,073	0,144
-296,964	-21,839	0,055	-0,024
-295,949	-6,936	0,084	-0,042
-294,935	-200,000	0,010	-0,109
-293,920	-17,432	0,035	0,016
-292,905	800,000	-0,028	-0,067
-291,891	-47,059	0,125	0,044
-290,876	-132,118	-0,079	0,007
-289,862	180,815	0,056	0,061
-288,847	653,017	0,033	0,061
-287,832	385,027	0,070	0,106
-286,818	29,609	0,036	-0,022
-285,803	800,000	0,056	-0,126
-284,789	39,876	-0,066	0,043
-283,774	-0,775	-0,129	0,067
-282,759	-76,347	0,123	-0,032
-281,745	634,352	-0,036	-0,067
-280,730	466,358	0,042	0,069
-279,716	-200,000	0,010	0,042
-278,701	28,796	0,043	-0,026
-277,686	44,709	0,044	0,030
-276,672	0,733	0,063	-0,033
-275,657	800,000	0,017	-0,041
-274,643	-95,442	0,038	0,007
-273,628	-200,000	-0,004	-0,213
-272,613	-10,656	0,084	0,040
-271,599	448,379	0,094	0,152
-270,584	-39,439	-0,113	0,043
-269,570	-200,000	0,030	0,128
-268,555	-14,508	-0,031	-0,015
-267,540	-200,000	0,021	0,089
-266,526	-91,221	-0,102	0,021
-265,511	-200,000	0,001	0,110
-264,497	-142,971	0,038	-0,003
-263,482	62,898	0,094	0,069
-262,467	32,457	-0,123	-0,078
-261,453	-200,000	0,007	0,060
-260,438	-200,000	-0,010	0,033
-259,424	-3,488	-0,031	0,016
-258,409	-200,000	0,002	0,006
-257,395	132,398	0,104	-0,098
-256,380	47,741	0,089	0,061
-255,365	800,000	0,068	0,187
-254,351	69,201	0,102	0,077
-253,336	70,648	-0,054	-0,041
-252,322	-200,000	-0,008	-0,145
-251,307	800,000	-0,015	-0,040
-250,292	-128,041	-0,137	-0,014
-249,278	-21,072	0,036	-0,016
-248,263	-90,593	0,154	0,032
-247,249	-200,000	-0,006	0,025
-246,234	-62,730	-0,100	0,030
-245,219	92,583	0,076	-0,063
-244,205	56,002	-0,057	-0,040
-243,190	299,401	0,033	0,045
-242,176	19,639	0,044	0,026
-241,161	-200,000	-0,010	-0,073
-240,146	-92,854	0,096	-0,019
-239,132	-200,000	0,009	-0,058
-238,117	-141,534	-0,113	-0,008
-237,103	170,674	0,093	0,097
-236,088	-200,000	0,019	-0,122
-235,073	-125,550	0,176	-0,019
-234,059	-200,000	-0,017	0,108
-233,044	214,487	-0,048	-0,056
-232,030	-200,000	-0,022	0,077
-231,015	174,752	0,050	-0,053
-230,000	-44,895	0,043	0,016
-228,986	-132,313	-0,096	-0,009
-227,971	-200,000	-0,015	0,068
-226,957	800,000	-0,061	0,124
-225,942	-131,242	0,066	-0,006
-224,927	2,269	0,036	0,019
-223,913	-24,141	-0,016	0,007
-222,898	-133,546	-0,090	0,008
-221,884	-200,000	0,017	-0,059
-220,869	-147,230	0,078	0,005
-219,855	291,774	-0,013	0,017
-218,840	-93,607	0,035	0,007
-217,825	340,945	-0,075	0,107
-216,811	800,000	-0,019	-0,052
-215,796	-49,375	-0,204	-0,071
-214,782	78,914	-0,073	-0,057
-213,767	3,584	0,106	0,056
-212,752	13,656	0,066	0,038
-211,738	318,352	-0,048	-0,067
-210,723	-2,439	-0,121	-0,062
-209,709	-96,774	-0,117	-0,022
-208,694	800,000	0,053	-0,156
-207,679	39,809	0,097	0,063
-206,665	80,456	0,071	-0,056
-205,650	-143,842	-0,081	0,005
-204,636	210,924	0,081	0,093
-203,621	800,000	0,042	-0,125
-202,606	529,472	0,014	-0,024
-201,592	-200,000	0,016	-0,055
-200,577	-123,615	-0,110	-0,013
-199,563	62,286	0,029	-0,021
-198,548	-89,769	0,020	0,004
-197,533	-98,525	0,085	-0,016
-196,519	297,951	0,027	-0,037
-195,504	261,512	-0,073	0,092
-194,490	-200,000	0,004	0,070
-193,475	-200,000	-0,012	0,100
-192,460	664,306	0,023	0,044
-191,446	800,000	0,069	0,181
-190,431	609,772	0,049	0,090
-189,417	189,020	-0,014	-0,015
-188,402	2,957	-0,006	-0,003
-187,387	159,892	0,100	-0,102
-186,373	91,278	-0,013	-0,010
-185,358	22,438	0,029	-0,017
-184,344	100,759	0,110	-0,093
-183,329	-55,975	-0,020	0,006
-182,315	224,476	0,021	0,025
-181,300	-184,362	-0,164	0,002
-180,285	246,227	-0,110	-0,136
-179,271	88,174	-0,092	-0,074
-178,256	-121,743	-0,032	0,004
-177,242	800,000	-0,037	-0,109
-176,227	248,557	0,090	0,112
-175,212	-200,000	-0,015	0,125
-174,198	634,338	0,048	0,089
-173,183	22,753	-0,109	0,065
-172,169	-69,934	-0,099	0,027
-171,154	-200,000	-0,009	-0,075
-170,139	205,969	0,045	0,051
-169,125	-95,213	0,146	0,028
-168,110	281,283	-0,098	0,128
-167,096	163,819	-0,129	0,133
-166,081	181,325	0,088	-0,094
-165,066	718,921	0,042	0,082
-164,052	-135,525	-0,136	-0,012
-163,037	-60,945	0,128	-0,039
-162,023	-200,000	-0,008	0,079
-161,008	447,465	-0,029	0,047
-159,993	5,992	0,099	-0,053
-158,979	800,000	0,062	-0,134
-157,964	-8,179	-0,101	-0,050
-156,950	-200,000	0,023	-0,160
-155,935	-117,642	0,042	-0,005
-154,920	800,000	0,030	-0,094
-153,906	46,340	0,099	-0,067
-152,891	800,000	-0,006	-0,017
-151,877	-200,000	-0,010	-0,041
-150,862	-200,000	-0,016	0,103
-149,847	-88,432	-0,077	-0,017
-148,833	76,429	0,084	0,065
-147,818	-200,000	-0,006	-0,164
-146,804	-200,000	0,009	0,072
-145,789	800,000	-0,053	0,136
-144,775	-29,929	-0,109	0,045
-143,760	-27,062	-0,056	-0,024
-142,745	-200,000	0,003	-0,173
-141,731	-200,000	-0,024	-0,124
-140,716	-200,000	-0,014	-0,058
-139,702	-200,000	0,023	0,139
-138,687	800,000	-0,016	0,045
-137,672	-200,000	0,036	0,136
-136,658	212,205	-0,069	0,080
-135,643	800,000	-0,043	-0,115
-134,629	85,561	0,102	-0,082
-133,614	-200,000	0,010	-0,120
-132,599	10,949	0,090	-0,050
-131,585	-59,699	0,114	0,035
-130,570	-164,684	-0,192	-0,006
-129,556	-136,402	0,067	-0,006
-128,541	-19,710	-0,033	-0,015
-127,526	-170,379	-0,115	-0,003
-126,512	-200,000	0,016	-0,075
-125,497	800,000	0,019	0,050
-124,483	-78,470	0,206	-0,051
-123,468	430,135	0,019	-0,030
-122,453	-200,000	0,002	-0,113
-121,439	332,962	-0,047	-0,067
-120,424	800,000	-0,029	-0,063
