DTS Sentinel unit serial number:	SN410029Multiplexer serial number:	ORYXHardware model number:	OX2-SRSoftware version number:	ORYX F/W v4,00 Oryx Data Collector v3.7.2.0data status	okinstallation	B6 Nyhavnadifferential loss correction	single-endedforward channel	channel 2reverse channel	N/Adate	2023/12/11time	06:55:08forward acquisition time	300,00reverse acquisition time	0,00gamma	499,1914k internal	0,3125k external	0,3125temperature offset calibration	1,0000default loss term (dB/km)	0,3820temperature slope calibration	1,0000multiplexer offset coefficient	1,0000multiplexer slope coefficient	1,0000fibre end	0,00T internal ref (°C)	19,31T ext. ref 1 (°C)	2,38T ext. ref 2 (°C)	2,44length (m)	temperature (°C)	Stokes	anti-Stokes-744,400	498,379	0,059	-0,102
-743,385	-183,800	-0,294	-0,004
-742,371	-87,422	-0,026	0,006
-741,356	329,364	-0,082	0,118
-740,342	-200,000	0,003	0,040
-739,327	-127,797	-0,252	0,027
-738,312	-200,000	-0,036	-0,170
-737,298	-117,058	-0,222	0,030
-736,283	-200,000	0,016	0,081
-735,269	-84,178	-0,182	-0,043
-734,254	39,666	0,122	0,081
-733,239	-154,340	-0,455	-0,022
-732,225	166,632	0,127	0,134
-731,210	182,071	-0,108	0,118
-730,196	-94,667	-0,123	-0,025
-729,181	15,173	-0,070	0,041
-728,167	-144,545	0,164	0,011
-727,152	299,679	-0,022	0,030
-726,137	-121,527	0,034	0,004
-725,123	-45,271	-0,135	0,050
-724,108	162,623	-0,023	-0,024
-723,094	38,739	0,045	0,030
-722,079	-6,629	-0,095	-0,048
-721,064	515,587	-0,046	0,080
-720,050	800,000	0,005	-0,011
-719,035	-102,245	-0,118	0,021
-718,021	-21,509	0,082	0,037
-717,006	-92,952	-0,093	-0,019
-715,991	167,448	-0,081	-0,086
-714,977	-200,000	0,019	-0,088
-713,962	-129,014	-0,054	-0,006
-712,948	800,000	0,021	-0,060
-711,933	442,977	0,039	-0,064
-710,918	-23,221	0,117	0,052
-709,904	-3,337	-0,111	-0,057
-708,889	498,131	-0,080	-0,138
-707,875	-9,043	-0,079	0,039
-706,860	-200,000	0,004	-0,035
-705,845	-129,524	0,043	-0,004
-704,831	27,091	-0,038	0,024
-703,816	346,268	-0,090	-0,132
-702,802	-23,569	0,197	-0,088
-701,787	38,984	-0,162	-0,108
-700,772	800,000	0,058	-0,138
-699,758	111,347	0,069	0,062
-698,743	63,164	0,127	0,094
-697,729	800,000	-0,031	0,076
-696,714	-200,000	0,017	-0,113
-695,699	-200,000	0,026	-0,098
-694,685	-142,177	-0,071	0,005
-693,670	-56,073	0,086	0,028
-692,656	55,685	0,033	-0,024
-691,641	-200,000	0,025	0,098
-690,627	605,371	-0,020	-0,038
-689,612	424,271	0,022	0,035
-688,597	350,737	-0,012	-0,018
-687,583	550,596	-0,062	-0,110
-686,568	470,046	-0,065	-0,109
-685,554	73,311	0,056	0,044
-684,539	-13,153	0,087	0,042
-683,524	-200,000	-0,002	-0,007
-682,510	800,000	-0,032	-0,072
-681,495	-4,919	-0,099	-0,050
-680,481	-200,000	-0,029	-0,097
-679,466	-200,000	-0,011	-0,091
-678,451	-154,869	-0,203	0,010
-677,437	800,000	-0,003	-0,009
-676,422	-169,367	0,075	0,002
-675,408	99,393	0,071	0,061
-674,393	647,468	0,038	-0,072
-673,378	-139,044	-0,050	0,004
-672,364	800,000	-0,058	-0,123
-671,349	412,474	0,053	-0,085
-670,335	248,272	-0,098	0,124
-669,320	220,314	0,031	0,036
-668,305	-200,000	0,035	0,131
-667,291	75,625	0,045	-0,035
-666,276	254,980	-0,070	0,089
-665,262	-200,000	-0,015	-0,053
-664,247	-200,000	-0,023	0,121
-663,232	215,037	0,087	-0,103
-662,218	174,106	-0,093	0,100
-661,203	-60,435	0,144	0,045
-660,189	4,284	-0,085	0,046
-659,174	-131,292	0,084	0,008
-658,159	13,188	-0,058	-0,033
-657,145	-34,161	-0,031	0,013
-656,130	37,568	0,064	0,042
-655,116	-26,907	0,029	0,013
-654,101	123,047	0,072	-0,067
-653,086	-200,000	0,020	0,143
-652,072	-200,000	0,033	-0,241
-651,057	18,111	-0,049	0,029
-650,043	-12,072	-0,136	0,066
-649,028	605,385	-0,011	-0,021
-648,014	-200,000	-0,007	0,099
-646,999	-116,486	0,104	0,014
-645,984	-200,000	-0,010	-0,075
-644,970	329,245	0,043	-0,062
-643,955	-7,914	-0,072	-0,036
-642,941	86,918	-0,102	-0,084
-641,926	800,000	-0,043	-0,095
-640,911	178,638	-0,031	-0,034
-639,897	-200,000	-0,037	0,139
-638,882	800,000	-0,029	-0,081
-637,868	800,000	-0,064	-0,139
-636,853	87,432	-0,062	-0,051
-635,838	85,454	0,092	-0,075
-634,824	171,344	-0,064	-0,068
-633,809	123,405	0,051	-0,047
-632,795	800,000	-0,015	-0,036
-631,780	800,000	0,023	0,059
-630,765	-136,004	0,063	0,005
-629,751	-79,562	-0,066	0,016
-628,736	-200,000	-0,026	-0,091
-627,722	-200,000	0,007	0,082
-626,707	-200,000	-0,020	-0,098
-625,692	-200,000	0,021	0,088
-624,678	-0,291	0,069	0,036
-623,663	-200,000	-0,011	0,115
-622,649	59,696	-0,174	-0,127
-621,634	-14,910	0,048	-0,023
-620,619	-102,073	0,148	-0,026
-619,605	-200,000	0,009	0,039
-618,590	-97,429	0,094	-0,018
-617,576	-157,803	-0,131	-0,006
-616,561	795,039	-0,049	0,100
-615,546	800,000	0,047	-0,111
-614,532	-128,968	-0,031	-0,003
-613,517	-200,000	0,022	-0,124
-612,503	222,508	0,039	-0,047
-611,488	-200,000	0,010	0,046
-610,474	203,123	-0,061	-0,070
-609,459	-200,000	-0,011	0,123
-608,444	-200,000	0,007	-0,054
-607,430	213,356	-0,053	-0,062
-606,415	-36,062	0,127	0,051
-605,401	-106,017	0,023	-0,004
-604,386	-184,214	0,218	-0,003
-603,371	485,306	0,110	0,186
-602,357	166,988	-0,022	-0,023
-601,342	-136,843	-0,014	-0,001
-600,328	-200,000	-0,002	0,067
-599,313	106,726	0,052	-0,045
-598,298	-200,000	0,006	0,032
-597,284	86,446	-0,033	-0,027
-596,269	-157,639	0,122	-0,005
-595,255	-52,286	-0,050	0,017
-594,240	-156,098	-0,082	-0,004
-593,225	-200,000	0,017	0,087
-592,211	403,242	0,032	0,050
-591,196	800,000	0,055	-0,178
-590,182	-157,559	0,114	-0,005
-589,167	-65,833	0,116	-0,034
-588,152	200,162	0,039	0,045
-587,138	-106,754	0,067	0,011
-586,123	-200,000	0,017	-0,160
-585,109	41,815	-0,115	-0,077
-584,094	694,843	-0,040	-0,078
-583,079	-65,808	0,060	-0,018
-582,065	68,540	-0,019	-0,015
-581,050	-200,000	-0,016	-0,068
-580,036	800,000	0,019	-0,054
-579,021	571,182	-0,054	0,097
-578,006	159,354	-0,173	-0,178
-576,992	224,742	0,023	0,027
-575,977	-93,460	0,035	0,007
-574,963	-42,719	0,042	-0,016
-573,948	-20,631	0,090	-0,041
-572,934	-93,639	0,102	0,021
-571,919	302,637	0,028	0,038
-570,904	98,177	-0,070	-0,060
-569,890	643,708	-0,044	0,084
-568,875	-75,160	-0,064	-0,017
-567,861	-64,946	-0,053	-0,016
-566,846	800,000	0,016	-0,050
-565,831	-200,000	0,017	0,084
-564,817	81,454	0,087	0,069
-563,802	-17,155	0,082	0,038
-562,788	67,183	0,024	-0,018
-561,773	136,688	-0,116	-0,112
-560,758	-35,035	-0,067	0,027
-559,744	-200,000	-0,004	-0,116
-558,729	33,912	-0,067	0,043
-557,715	-200,000	-0,003	-0,098
-556,700	-152,231	-0,167	0,009
-555,685	45,943	-0,080	-0,055
-554,671	-200,000	0,021	0,172
-553,656	-37,648	0,114	0,045
-552,642	97,036	-0,150	0,127
-551,627	549,336	0,142	0,252
-550,612	-135,775	-0,068	-0,006
-549,598	499,687	0,035	-0,061
-548,583	-155,576	-0,096	0,004
-547,569	-190,788	-0,084	0,001
-546,554	-169,783	0,027	0,001
-545,539	26,999	0,141	-0,087
-544,525	-67,399	0,017	-0,005
-543,510	-52,277	-0,107	0,036
-542,496	-200,000	-0,016	-0,080
-541,481	722,411	-0,100	-0,197
-540,466	-87,174	0,088	-0,020
-539,452	118,280	0,062	0,056
-538,437	-200,000	-0,003	-0,019
-537,423	-176,453	-0,076	-0,001
-536,408	303,265	-0,068	0,093
-535,393	196,332	-0,040	-0,045
-534,379	800,000	-0,036	-0,075
-533,364	-200,000	-0,013	-0,068
-532,350	-173,260	0,154	0,003
-531,335	-80,061	-0,053	-0,013
-530,321	800,000	-0,030	0,073
-529,306	585,373	0,051	0,094
-528,291	-14,639	-0,164	-0,078
-527,277	-71,173	-0,129	-0,036
-526,262	-3,002	-0,102	0,053
-525,248	-200,000	0,038	0,154
-524,233	475,710	-0,011	0,019
-523,218	-8,178	-0,040	-0,020
-522,204	-200,000	0,021	0,119
-521,189	-200,000	-0,011	-0,116
-520,175	14,415	0,079	-0,046
-519,160	89,842	0,098	0,081
-518,145	82,046	-0,190	-0,152
-517,131	800,000	0,054	0,172
-516,116	249,334	0,106	-0,133
-515,102	-105,776	-0,082	-0,014
-514,087	-89,070	-0,059	-0,013
-513,072	-200,000	-0,015	-0,084
-512,058	-29,037	-0,076	0,032
-511,043	54,459	0,049	0,035
-510,029	-71,652	-0,155	-0,042
-509,014	-200,000	0,004	0,092
-507,999	-147,637	0,073	-0,004
-506,985	-200,000	-0,002	0,139
-505,970	-9,906	0,022	0,011
-504,956	800,000	0,023	-0,049
-503,941	52,256	0,080	-0,056
-502,926	64,431	0,129	-0,095
-501,912	427,080	-0,049	0,078
-500,897	800,000	0,056	-0,144
-499,883	800,000	-0,024	-0,077
-498,868	40,731	-0,037	-0,024
-497,853	-121,176	-0,145	-0,018
-496,839	-200,000	0,008	-0,217
-495,824	5,537	0,181	0,098
-494,810	-28,093	-0,153	-0,065
-493,795	-44,933	0,072	0,026
-492,781	-200,000	0,005	0,033
-491,766	800,000	-0,037	-0,096
-490,751	-200,000	0,000	0,006
-489,737	279,406	-0,062	-0,081
-488,722	-179,254	0,101	0,002
-487,708	-188,445	0,138	0,001
-486,693	800,000	0,029	-0,073
-485,678	-3,418	0,087	-0,045
-484,664	-200,000	0,000	-0,083
-483,649	341,536	-0,034	0,050
-482,635	71,217	-0,056	-0,043
-481,620	-200,000	0,022	-0,077
-480,605	128,549	-0,056	0,053
-479,591	-23,188	-0,057	-0,025
-478,576	-71,845	-0,166	-0,045
-477,562	-200,000	-0,004	-0,284
-476,547	161,615	-0,072	-0,074
-475,532	104,607	0,015	-0,013
-474,518	-200,000	0,020	0,072
-473,503	287,815	0,112	-0,149
-472,489	168,637	0,102	0,107
-471,474	36,583	-0,049	-0,032
-470,459	-11,151	-0,025	-0,012
-469,445	-68,059	0,062	0,018
-468,430	123,127	-0,034	-0,032
-467,416	56,997	-0,015	-0,010
-466,401	800,000	0,035	0,075
-465,386	122,598	-0,114	0,105
-464,372	50,542	-0,085	-0,059
-463,357	668,768	-0,069	0,133
-462,343	-200,000	-0,048	-0,165
-461,328	800,000	-0,046	-0,134
-460,313	348,771	-0,049	0,072
-459,299	800,000	-0,025	0,071
-458,284	800,000	0,068	0,141
-457,270	437,327	0,068	0,110
-456,255	-119,728	-0,210	0,026
-455,241	800,000	0,014	0,037
-454,226	257,746	0,075	0,095
-453,211	-129,315	0,049	-0,005
-452,197	-200,000	0,025	-0,131
-451,182	-139,239	0,084	-0,007
-450,168	69,051	0,095	0,071
-449,153	36,751	0,069	-0,045
-448,138	79,811	-0,054	0,043
-447,124	99,437	-0,113	-0,096
-446,109	-107,764	-0,044	0,007
-445,095	-200,000	-0,002	0,034
-444,080	277,068	-0,105	0,138
-443,065	-200,000	0,023	-0,077
-442,051	800,000	0,053	-0,122
-441,036	247,690	-0,036	-0,045
-440,022	-200,000	0,026	0,088
-439,007	800,000	0,019	-0,055
-437,992	168,560	0,051	-0,054
-436,978	632,070	0,092	0,173
-435,963	-63,661	-0,115	0,034
-434,949	13,566	-0,084	0,048
-433,934	72,921	0,099	-0,076
-432,919	118,697	-0,090	-0,082
-431,905	116,878	-0,121	0,110
-430,890	23,894	-0,023	0,014
-429,876	148,160	-0,026	0,026
-428,861	-200,000	-0,037	0,172
-427,846	-200,000	0,012	0,097
-426,832	800,000	0,097	-0,278
-425,817	-6,696	-0,162	-0,081
-424,803	55,340	-0,107	-0,076
-423,788	800,000	0,008	0,025
-422,773	800,000	-0,035	0,094
-421,759	-74,042	-0,099	0,026
-420,744	-200,000	0,016	0,129
-419,730	-200,000	-0,002	0,029
-418,715	-200,000	0,017	0,083
-417,701	358,009	-0,090	-0,133
-416,686	-148,524	0,038	-0,002
-415,671	50,911	0,050	0,035
-414,657	308,810	-0,073	-0,100
-413,642	92,729	-0,014	0,012
-412,628	-109,333	-0,167	0,026
-411,613	-49,797	-0,066	-0,023
-410,598	-200,000	0,024	-0,081
-409,584	-200,000	0,007	0,040
-408,569	353,560	-0,043	-0,062
-407,555	-200,000	0,036	0,147
-406,540	92,112	0,055	-0,046
-405,525	-200,000	-0,001	0,061
-404,511	87,839	-0,058	0,047
-403,496	-200,000	0,001	-0,066
-402,482	-200,000	0,010	0,055
-401,467	800,000	0,055	0,158
-400,452	-171,058	0,223	0,005
-399,438	180,250	0,046	-0,049
-398,423	800,000	-0,037	-0,112
-397,409	260,853	0,072	0,092
-396,394	-200,000	0,006	0,026
-395,379	800,000	-0,039	0,093
-394,365	-1,275	-0,042	0,022
-393,350	-106,437	0,077	-0,012
-392,336	276,897	0,020	0,026
-391,321	-49,309	-0,071	0,025
-390,306	-46,073	-0,069	-0,025
-389,292	-116,210	0,033	0,004
-388,277	202,982	0,033	0,038
-387,263	74,689	0,056	-0,043
-386,248	-200,000	0,019	-0,143
-385,233	-23,536	-0,042	-0,018
-384,219	-200,000	0,038	0,154
-383,204	-200,000	0,012	-0,046
-382,190	270,341	-0,027	0,035
-381,175	167,259	-0,021	0,022
-380,160	-200,000	-0,001	0,090
-379,146	-15,331	0,229	0,107
-378,131	512,167	-0,017	0,029
-377,117	82,466	0,060	-0,048
-376,102	78,996	0,031	-0,024
-375,088	-61,862	-0,068	-0,021
-374,073	264,908	0,054	0,069
-373,058	-200,000	0,007	0,053
-372,044	61,466	0,025	-0,018
-371,029	-140,401	0,116	0,009
-370,015	403,743	0,077	-0,120
-369,000	-200,000	-0,014	-0,071
-367,985	632,331	-0,058	0,108
-366,971	8,979	-0,169	0,094
-365,956	740,563	0,012	-0,025
-364,942	800,000	-0,020	0,050
-363,927	-200,000	0,009	-0,114
-362,912	-200,000	0,025	-0,104
-361,898	-200,000	0,002	-0,142
-360,883	326,710	-0,087	-0,122
-359,869	-120,520	-0,029	-0,004
-358,854	81,580	-0,061	-0,049
-357,839	-200,000	-0,019	0,090
-356,825	281,546	0,025	0,033
-355,810	-141,194	-0,087	0,006
-354,796	125,718	-0,054	0,050
-353,781	143,828	-0,061	0,059
-352,766	-67,142	0,106	-0,030
-351,752	314,836	0,029	-0,040
-350,737	800,000	0,049	0,123
-349,723	-4,649	0,124	0,063
-348,708	161,119	-0,081	0,083
-347,693	-200,000	-0,013	0,051
-346,679	605,969	0,072	-0,132
-345,664	-143,015	-0,126	0,009
-344,650	325,629	0,119	0,167
-343,635	137,285	0,088	0,084
-342,620	-200,000	-0,003	-0,180
-341,606	566,990	0,017	0,031
-340,591	-72,744	-0,042	0,011
-339,577	-200,000	-0,011	-0,073
-338,562	514,511	-0,036	0,061
-337,548	137,049	-0,086	0,083
-336,533	-95,055	0,099	-0,019
-335,518	15,344	0,199	0,114
-334,504	-200,000	0,003	0,082
-333,489	-82,891	-0,036	-0,008
-332,475	-200,000	-0,035	-0,123
-331,460	165,744	-0,028	-0,030
-330,445	68,363	-0,022	0,016
-329,431	-56,502	-0,082	0,026
-328,416	418,763	0,064	0,101
-327,402	51,570	0,045	-0,031
-326,387	-200,000	-0,020	-0,104
-325,372	-47,617	0,087	-0,031
-324,358	608,955	-0,081	-0,148
-323,343	-200,000	-0,025	0,120
-322,329	115,836	-0,063	-0,056
-321,314	89,748	0,077	0,063
-320,299	253,031	-0,030	-0,038
-319,285	584,821	-0,019	0,034
-318,270	800,000	-0,026	-0,080
-317,256	800,000	-0,027	-0,062
-316,241	-173,323	0,019	0,000
-315,226	-47,223	0,101	0,036
-314,212	-94,736	-0,126	-0,025
-313,197	-200,000	0,015	0,118
-312,183	9,782	-0,113	0,063
-311,168	-200,000	0,007	-0,026
-310,153	189,150	-0,015	-0,016
-309,139	-152,414	-0,111	0,006
-308,124	-85,060	0,066	0,015
-307,110	535,928	0,077	-0,134
-306,095	155,954	0,100	0,101
-305,080	800,000	-0,029	-0,065
-304,066	-72,649	0,101	-0,027
-303,051	800,000	0,023	0,054
-302,037	18,193	-0,057	-0,033
-301,022	112,273	-0,039	-0,034
-300,008	-22,546	0,095	-0,042
-298,993	423,212	-0,042	0,067
-297,978	-21,190	0,030	0,013
-296,964	297,490	-0,034	-0,045
-295,949	800,000	0,013	-0,026
-294,935	800,000	-0,027	-0,085
-293,920	-178,240	0,057	0,001
-292,905	800,000	0,009	0,026
-291,891	20,636	-0,089	0,052
-290,876	608,857	-0,023	-0,042
-289,862	65,390	-0,046	0,034
-288,847	-200,000	0,014	0,046
-287,832	401,967	-0,051	-0,078
-286,818	-130,249	-0,085	0,008
-285,803	-200,000	0,023	0,188
-284,789	-92,868	0,163	0,033
-283,774	672,631	0,019	-0,037
-282,759	-200,000	-0,008	0,097
-281,745	-102,419	-0,149	0,026
-280,730	800,000	0,003	0,011
-279,716	-126,465	0,024	0,003
-278,701	800,000	0,011	0,034
-277,686	-200,000	0,002	-0,033
-276,672	-200,000	0,009	0,033
-275,657	776,225	-0,034	-0,068
-274,643	113,568	-0,027	0,024
-273,628	-198,789	-0,190	0,001
-272,613	-157,300	-0,083	-0,004
-271,599	-200,000	0,032	0,128
-270,584	159,404	0,030	0,031
-269,570	-200,000	-0,014	0,078
-268,555	64,773	0,056	-0,041
-267,540	485,168	-0,080	0,133
-266,526	-74,409	0,038	-0,010
-265,511	524,549	0,012	-0,020
-264,497	82,812	0,034	0,027
-263,482	-77,212	0,081	-0,021
-262,467	-200,000	-0,020	-0,170
-261,453	196,832	0,049	0,055
-260,438	127,074	-0,110	-0,102
-259,424	215,092	0,032	0,037
-258,409	-22,366	-0,127	-0,056
-257,395	554,365	-0,027	0,048
-256,380	-26,522	0,089	0,038
-255,365	-109,463	0,137	0,021
-254,351	-62,557	0,038	0,012
-253,336	730,453	-0,099	-0,194
-252,322	13,872	-0,133	-0,075
-251,307	-200,000	-0,006	-0,026
-250,292	168,685	-0,084	0,087
-249,278	-84,736	0,047	-0,011
-248,263	-200,000	0,003	0,029
-247,249	78,002	0,056	-0,043
-246,234	-30,528	0,043	-0,018
-245,219	-200,000	-0,021	-0,072
-244,205	-125,893	0,012	-0,001
-243,190	350,354	0,071	0,102
-242,176	-145,004	0,070	0,005
-241,161	-9,412	0,028	-0,014
-240,146	-200,000	-0,013	-0,097
-239,132	133,493	0,124	0,118
-238,117	55,657	-0,072	-0,051
-237,103	-72,375	-0,054	-0,015
-236,088	-200,000	-0,010	0,114
-235,073	800,000	-0,075	0,169
-234,059	272,574	0,101	0,131
-233,044	136,065	0,028	-0,027
-232,030	-51,628	0,056	-0,019
-231,015	-82,330	-0,148	0,035
-230,000	-127,968	0,138	0,014
-228,986	251,845	0,036	0,045
-227,971	-200,000	-0,008	0,051
-226,957	-200,000	0,015	0,093
-225,942	800,000	0,059	0,121
-224,927	23,252	0,095	-0,057
-223,913	-29,863	-0,048	0,020
-222,898	233,166	-0,043	-0,052
-221,884	438,129	0,031	0,050
-220,869	-200,000	-0,008	-0,096
-219,855	207,424	-0,073	-0,083
-218,840	-89,238	0,140	0,030
-217,825	-200,000	0,017	-0,077
-216,811	202,862	-0,047	-0,053
-215,796	-200,000	0,002	-0,055
-214,782	258,029	-0,054	0,067
-213,767	800,000	0,030	-0,064
-212,752	22,891	0,039	0,023
-211,738	84,412	0,053	0,042
-210,723	-78,851	0,090	0,022
-209,709	425,962	0,015	-0,023
-208,694	251,905	-0,056	-0,070
-207,679	243,211	0,075	-0,092
-206,665	66,519	-0,131	0,097
-205,650	2,433	0,089	0,047
-204,636	175,356	0,051	0,054
-203,621	272,484	-0,114	0,147
-202,606	11,584	-0,100	-0,056
-201,592	-116,910	0,033	-0,004
-200,577	800,000	-0,026	-0,083
-199,563	-200,000	-0,001	-0,028
-198,548	103,478	-0,081	-0,069
-197,533	191,068	-0,027	0,030
-196,519	524,048	0,064	0,109
-195,504	-63,734	-0,076	-0,023
-194,490	-191,251	-0,091	-0,001
-193,475	-154,434	0,138	-0,007
-192,460	214,009	-0,047	0,054
-191,446	-61,898	-0,068	-0,020
-190,431	26,292	0,104	-0,063
-189,417	132,365	-0,059	-0,056
-188,402	-5,631	0,090	-0,045
-187,387	-200,000	-0,008	-0,048
-186,373	332,839	-0,098	0,138
-185,358	-121,868	0,116	-0,014
-184,344	-200,000	0,015	0,051
-183,329	-124,445	0,056	0,006
-182,315	-102,277	0,128	0,022
-181,300	-200,000	-0,021	-0,248
-180,285	-93,776	0,107	0,021
-179,271	40,873	0,029	0,019
-178,256	5,198	0,117	0,063
-177,242	-52,125	0,152	0,051
-176,227	-200,000	-0,037	0,220
-175,212	27,503	0,108	0,066
-174,198	-51,015	0,097	-0,033
-173,183	-72,353	-0,033	-0,009
-172,169	800,000	0,027	0,072
-171,154	10,388	0,084	-0,047
-170,139	-93,415	-0,049	0,010
-169,125	538,209	-0,065	0,112
-168,110	-200,000	0,011	0,112
-167,096	-25,106	-0,044	0,019
-166,081	-200,000	-0,024	-0,083
-165,066	-67,284	-0,096	-0,027
-164,052	130,485	-0,044	-0,041
-163,037	-133,781	0,071	0,006
-162,023	66,075	0,119	0,088
-161,008	59,598	0,055	0,039
-159,993	-56,839	-0,023	0,007
-158,979	800,000	-0,026	-0,057
-157,964	800,000	-0,034	-0,086
-156,950	-200,000	0,016	0,088
-155,935	800,000	0,015	-0,037
-154,920	-200,000	-0,025	0,111
-153,906	59,327	0,084	0,060
-152,891	93,390	0,047	0,039
-151,877	730,249	0,035	-0,069
-150,862	199,568	0,049	0,054
-149,847	750,897	0,028	-0,056
-148,833	-70,811	0,077	-0,021
-147,818	800,000	0,024	0,049
-146,804	-39,910	0,125	-0,047
-145,789	-33,513	-0,097	0,039
-144,775	-141,738	0,032	-0,002
-143,760	-200,000	0,003	0,088
-142,745	-200,000	-0,020	0,149
-141,731	112,115	0,229	0,201
-140,716	800,000	0,040	0,129
-139,702	-112,901	0,186	-0,026
-138,687	101,346	-0,054	0,046
-137,672	-142,137	0,106	-0,008
-136,658	88,378	-0,118	-0,096
-135,643	-200,000	0,014	-0,084
-134,629	-200,000	-0,003	-0,031
-133,614	800,000	0,010	0,026
-132,599	-200,000	-0,007	0,080
-131,585	342,312	-0,029	-0,041
-130,570	-112,250	0,101	-0,015
-129,556	57,427	-0,088	-0,063
-128,541	-5,766	-0,055	0,027
-127,526	-92,004	0,164	-0,033
-126,512	-126,081	-0,056	0,006
-125,497	-86,805	0,118	-0,026
-124,483	52,772	-0,037	0,026
-123,468	8,082	-0,013	0,007
-122,453	97,448	0,018	-0,015
-121,439	397,032	-0,044	-0,068
-120,424	55,673	-0,089	-0,062
-119,410	-66,037	0,083	0,024
