DTS Sentinel unit serial number:	SN410029Multiplexer serial number:	ORYXHardware model number:	OX2-SRSoftware version number:	ORYX F/W v4,00 Oryx Data Collector v3.7.2.0data status	okinstallation	B6 Nyhavnadifferential loss correction	single-endedforward channel	channel 2reverse channel	N/Adate	2023/12/10time	09:00:08forward acquisition time	300,00reverse acquisition time	0,00gamma	499,1914k internal	0,3123k external	0,3123temperature offset calibration	1,0000default loss term (dB/km)	0,3820temperature slope calibration	1,0000multiplexer offset coefficient	1,0000multiplexer slope coefficient	1,0000fibre end	0,00T internal ref (°C)	22,56T ext. ref 1 (°C)	6,30T ext. ref 2 (°C)	6,30length (m)	temperature (°C)	Stokes	anti-Stokes-744,400	800,000	0,033	-0,098
-743,385	108,707	-0,218	0,194
-742,371	37,459	0,105	0,070
-741,356	51,550	-0,244	0,173
-740,342	115,264	-0,064	0,058
-739,327	-55,159	-0,124	0,041
-738,312	332,250	-0,061	-0,089
-737,298	374,827	-0,121	0,185
-736,283	-200,000	-0,017	-0,122
-735,269	102,943	-0,139	0,121
-734,254	-31,024	0,032	0,013
-733,239	-60,025	-0,484	-0,153
-732,225	336,996	-0,042	0,062
-731,210	-8,872	0,091	0,045
-730,196	-97,905	0,048	-0,009
-729,181	-21,870	0,063	0,028
-728,167	61,629	-0,104	0,077
-727,152	-93,275	0,112	-0,023
-726,137	-26,300	-0,155	0,068
-725,123	-24,496	-0,156	0,069
-724,108	34,228	0,024	0,015
-723,094	800,000	-0,057	-0,140
-722,079	-200,000	-0,007	-0,099
-721,064	800,000	0,035	-0,073
-720,050	-200,000	-0,011	-0,039
-719,035	-150,285	-0,202	-0,011
-718,021	-200,000	0,013	-0,062
-717,006	-200,000	-0,014	-0,094
-715,991	766,545	0,024	-0,050
-714,977	10,624	-0,042	0,024
-713,962	-51,015	0,147	-0,051
-712,948	-115,556	-0,069	-0,010
-711,933	31,419	0,048	0,031
-710,918	55,813	-0,039	0,028
-709,904	79,683	-0,059	-0,047
-708,889	284,378	0,094	-0,126
-707,875	-200,000	0,010	-0,094
-706,860	56,460	0,049	-0,036
-705,845	78,649	-0,058	0,046
-704,831	-200,000	-0,009	-0,096
-703,816	212,239	-0,049	0,058
-702,802	694,378	-0,048	0,095
-701,787	-45,078	-0,036	-0,013
-700,772	-200,000	0,050	-0,201
-699,758	112,510	0,066	0,060
-698,743	800,000	0,036	0,076
-697,729	60,654	0,050	0,037
-696,714	368,751	-0,066	0,100
-695,699	-200,000	0,017	-0,103
-694,685	800,000	-0,019	-0,060
-693,670	33,290	-0,156	-0,100
-692,656	458,528	-0,002	0,003
-691,641	-6,244	0,052	-0,026
-690,627	-200,000	0,010	-0,119
-689,612	-121,312	0,085	-0,010
-688,597	-120,697	-0,045	0,006
-687,583	-99,071	-0,147	-0,028
-686,568	57,297	0,103	0,075
-685,554	-96,070	0,010	-0,002
-684,539	277,224	0,032	-0,043
-683,524	-200,000	-0,019	-0,067
-682,510	-200,000	-0,005	0,077
-681,495	670,327	-0,042	-0,081
-680,481	224,337	-0,057	-0,069
-679,466	-200,000	-0,000	0,047
-678,451	800,000	0,037	-0,087
-677,437	-92,875	-0,022	0,004
-676,422	-33,730	0,053	0,022
-675,408	42,258	0,032	0,022
-674,393	618,724	-0,061	-0,114
-673,378	-156,760	-0,037	0,002
-672,364	-200,000	0,005	0,035
-671,349	-85,863	-0,018	-0,004
-670,335	-200,000	0,005	-0,067
-669,320	-200,000	0,025	-0,129
-668,305	-97,961	-0,040	-0,008
-667,291	-24,357	-0,062	0,028
-666,276	-68,560	0,082	0,023
-665,262	-134,059	-0,145	-0,013
-664,247	547,468	0,034	0,060
-663,232	143,284	0,039	-0,039
-662,218	777,273	-0,083	0,170
-661,203	-200,000	0,011	0,080
-660,189	-200,000	-0,035	0,131
-659,174	387,933	-0,062	-0,095
-658,159	0,231	-0,025	0,013
-657,145	363,377	0,085	-0,127
-656,130	72,680	-0,029	-0,022
-655,116	-83,158	-0,091	-0,022
-654,101	-73,168	-0,022	0,006
-653,086	377,440	-0,033	-0,050
-652,072	307,444	0,072	-0,100
-651,057	-72,775	-0,142	-0,039
-650,043	-69,854	0,060	-0,017
-649,028	7,013	-0,073	-0,040
-648,014	800,000	-0,029	-0,066
-646,999	380,642	-0,042	-0,064
-645,984	34,092	0,193	-0,125
-644,970	627,941	-0,042	-0,080
-643,955	800,000	-0,052	-0,153
-642,941	-45,697	0,088	0,032
-641,926	-135,282	-0,150	-0,013
-640,911	350,241	0,036	0,053
-639,897	-200,000	0,030	-0,103
-638,882	-56,247	-0,101	-0,033
-637,868	-74,327	0,065	-0,017
-636,853	-200,000	0,017	-0,060
-635,838	-56,846	-0,138	-0,045
-634,824	800,000	0,037	-0,120
-633,809	-42,273	0,092	0,035
-632,795	-120,915	0,148	0,018
-631,780	-54,835	-0,101	-0,034
-630,765	800,000	0,016	0,039
-629,751	800,000	-0,043	-0,092
-628,736	-165,019	-0,212	-0,007
-627,722	-80,663	-0,082	0,020
-626,707	-15,472	0,033	0,015
-625,692	-200,000	0,004	0,040
-624,678	-200,000	0,000	0,117
-623,663	-26,273	0,083	0,036
-622,649	800,000	-0,008	0,024
-621,634	800,000	0,045	-0,105
-620,619	-200,000	0,006	-0,060
-619,605	59,035	0,089	-0,065
-618,590	-7,915	0,084	0,042
-617,576	45,534	-0,073	0,050
-616,561	165,321	-0,086	-0,090
-615,546	-200,000	0,012	-0,054
-614,532	202,366	-0,058	-0,066
-613,517	-22,188	-0,012	0,005
-612,503	-117,356	-0,209	0,028
-611,488	130,446	0,050	0,048
-610,474	-92,722	0,044	-0,009
-609,459	31,886	0,074	0,047
-608,444	-191,548	-0,041	-0,000
-607,430	-9,814	0,072	-0,035
-606,415	498,176	-0,058	0,099
-605,401	-14,542	-0,069	-0,033
-604,386	-71,227	-0,172	0,048
-603,371	210,002	0,075	0,087
-602,357	27,715	-0,047	0,029
-601,342	277,298	0,074	-0,097
-600,328	5,838	-0,122	-0,067
-599,313	-200,000	-0,005	-0,031
-598,298	800,000	0,034	-0,106
-597,284	51,688	0,051	-0,036
-596,269	800,000	0,048	-0,139
-595,255	340,728	-0,006	0,008
-594,240	800,000	-0,057	0,130
-593,225	-200,000	0,041	-0,179
-592,211	548,720	-0,083	0,148
-591,196	68,048	-0,067	0,051
-590,182	94,449	0,065	0,055
-589,167	-200,000	-0,014	0,130
-588,152	-200,000	0,001	0,102
-587,138	630,474	-0,038	0,071
-586,123	146,513	-0,071	-0,070
-585,109	-103,030	0,136	0,024
-584,094	120,002	0,093	0,086
-583,079	34,578	-0,036	-0,023
-582,065	74,943	-0,047	0,037
-581,050	800,000	-0,005	0,015
-580,036	138,176	-0,043	0,042
-579,021	513,349	0,046	0,080
-578,006	85,182	-0,074	0,060
-576,992	754,940	0,044	0,088
-575,977	-21,222	0,110	-0,050
-574,963	-65,570	0,213	-0,063
-573,948	800,000	-0,015	0,035
-572,934	-134,378	0,048	0,004
-571,919	334,550	0,018	-0,026
-570,904	301,379	-0,058	-0,079
-569,890	61,336	-0,134	0,099
-568,875	-73,350	-0,125	-0,034
-567,861	136,162	0,034	-0,033
-566,846	318,986	0,096	0,135
-565,831	139,548	-0,010	0,009
-564,817	-84,692	-0,029	-0,007
-563,802	170,933	-0,056	-0,059
-562,788	-55,304	0,023	-0,008
-561,773	-13,905	0,069	-0,033
-560,758	-64,063	-0,018	-0,006
-559,744	-200,000	0,012	0,113
-558,729	-200,000	0,007	-0,048
-557,715	-200,000	-0,030	-0,127
-556,700	10,143	-0,025	-0,014
-555,685	323,275	0,084	-0,119
-554,671	-200,000	-0,012	-0,058
-553,656	-71,649	0,060	0,016
-552,642	-25,559	0,215	-0,094
-551,627	-134,174	-0,061	-0,005
-550,612	0,106	-0,048	0,025
-549,598	-200,000	0,012	-0,076
-548,583	-176,605	-0,070	-0,001
-547,569	145,802	-0,031	0,031
-546,554	800,000	0,052	0,108
-545,539	-0,042	0,163	-0,086
-544,525	-158,722	-0,119	-0,005
-543,510	-87,484	-0,085	-0,019
-542,496	-200,000	0,000	-0,031
-541,481	4,355	-0,079	-0,043
-540,466	55,116	0,069	-0,049
-539,452	266,937	0,032	0,041
-538,437	-110,314	-0,091	0,014
-537,423	467,841	-0,044	-0,073
-536,408	-136,951	-0,125	-0,010
-535,393	-23,268	-0,127	-0,056
-534,379	422,794	0,068	-0,108
-533,364	-200,000	-0,006	0,038
-532,350	-200,000	0,021	0,127
-531,335	-56,312	-0,066	-0,022
-530,321	-111,675	-0,074	-0,011
-529,306	-200,000	0,019	0,084
-528,291	-147,945	-0,127	-0,008
-527,277	34,050	-0,140	-0,090
-526,262	-121,764	0,076	0,009
-525,248	-200,000	0,009	0,034
-524,233	800,000	0,028	-0,070
-523,218	537,572	0,043	0,076
-522,204	-71,258	0,131	-0,036
-521,189	715,068	-0,099	-0,194
-520,175	800,000	-0,061	-0,162
-519,160	-154,729	0,097	0,005
-518,145	-200,000	0,018	0,065
-517,131	237,440	0,027	0,033
-516,116	348,932	-0,085	0,124
-515,102	-199,409	-0,107	-0,000
-514,087	29,246	-0,124	-0,078
-513,072	-138,135	-0,004	-0,000
-512,058	800,000	-0,049	-0,123
-511,043	800,000	0,024	-0,056
-510,029	226,838	-0,055	0,066
-509,014	21,348	0,051	-0,031
-507,999	-200,000	0,013	-0,082
-506,985	800,000	-0,036	-0,081
-505,970	-200,000	-0,050	0,186
-504,956	-200,000	0,010	-0,038
-503,941	-200,000	-0,003	-0,190
-502,926	-118,812	0,062	0,008
-501,912	43,414	0,063	-0,042
-500,897	-200,000	-0,011	-0,043
-499,883	-159,953	-0,049	0,002
-498,868	-34,682	-0,174	0,070
-497,853	-200,000	-0,060	-0,198
-496,839	80,135	0,038	0,030
-495,824	-86,866	0,013	-0,003
-494,810	221,552	0,097	-0,115
-493,795	203,212	-0,139	0,159
-492,781	-76,379	-0,167	0,043
-491,766	-159,599	0,126	0,005
-490,751	-108,046	-0,094	0,015
-489,737	63,948	-0,072	0,053
-488,722	-200,000	0,010	0,111
-487,708	89,693	-0,077	-0,063
-486,693	16,576	-0,082	0,048
-485,678	9,541	-0,037	0,020
-484,664	-200,000	0,003	-0,036
-483,649	-16,865	-0,075	-0,035
-482,635	800,000	0,011	-0,027
-481,620	685,369	0,038	0,074
-480,605	-103,243	0,046	0,008
-479,591	664,649	0,012	0,024
-478,576	450,187	-0,035	-0,058
-477,562	800,000	0,027	-0,083
-476,547	283,159	-0,046	-0,061
-475,532	69,986	-0,135	-0,103
-474,518	74,954	0,064	0,050
-473,503	800,000	0,050	0,136
-472,489	-200,000	0,035	0,114
-471,474	267,485	-0,070	0,090
-470,459	30,035	-0,021	-0,013
-469,445	800,000	-0,025	0,059
-468,430	94,240	0,058	0,049
-467,416	193,485	0,069	0,077
-466,401	800,000	0,072	-0,158
-465,386	34,960	0,037	0,024
-464,372	22,880	0,079	0,048
-463,357	143,295	0,072	0,070
-462,343	-32,507	-0,109	-0,045
-461,328	-200,000	0,009	0,092
-460,313	-144,694	-0,103	-0,007
-459,299	-186,468	0,127	-0,001
-458,284	87,541	0,059	0,048
-457,270	319,038	-0,085	-0,118
-456,255	-37,390	-0,035	0,014
-455,241	-63,486	-0,095	-0,029
-454,226	-61,435	0,058	0,018
-453,211	800,000	-0,028	-0,059
-452,197	-200,000	0,002	-0,017
-451,182	-200,000	-0,010	0,129
-450,168	105,134	-0,071	0,061
-449,153	29,152	0,078	0,049
-448,138	-99,337	0,042	-0,008
-447,124	114,027	0,024	-0,021
-446,109	-200,000	-0,002	-0,068
-445,095	-200,000	-0,017	0,104
-444,080	-106,253	-0,054	0,009
-443,065	-200,000	-0,021	-0,111
-442,051	156,069	0,070	0,071
-441,036	-200,000	-0,036	0,170
-440,022	222,405	-0,035	0,041
-439,007	190,398	-0,042	-0,047
-437,992	5,475	0,062	0,033
-436,978	-200,000	0,013	0,142
-435,963	-185,798	-0,057	-0,001
-434,949	42,737	0,014	-0,010
-433,934	-200,000	-0,005	-0,035
-432,919	-113,735	0,063	-0,009
-431,905	-200,000	0,026	-0,164
-430,890	88,060	0,067	0,055
-429,876	-108,222	-0,101	0,016
-428,861	800,000	-0,019	-0,047
-427,846	800,000	-0,039	0,093
-426,832	800,000	0,071	-0,163
-425,817	-200,000	-0,017	-0,089
-424,803	100,389	-0,105	0,090
-423,788	16,066	0,093	0,054
-422,773	31,417	0,074	0,047
-421,759	91,298	0,072	0,060
-420,744	800,000	-0,014	-0,043
-419,730	85,803	-0,064	-0,052
-418,715	800,000	0,038	-0,086
-417,701	-59,786	0,120	-0,038
-416,686	-200,000	-0,008	-0,088
-415,671	-70,277	0,050	-0,014
-414,657	63,051	0,063	0,046
-413,642	800,000	0,035	-0,090
-412,628	244,872	-0,018	-0,022
-411,613	-90,706	0,106	-0,022
-410,598	12,739	0,090	0,051
-409,584	16,640	-0,091	0,053
-408,569	-200,000	-0,020	0,104
-407,555	176,241	-0,012	0,013
-406,540	-13,358	0,060	0,028
-405,525	-200,000	-0,034	-0,161
-404,511	236,174	-0,103	-0,125
-403,496	800,000	0,068	-0,188
-402,482	-10,440	-0,061	0,030
-401,467	44,490	0,108	0,073
-400,452	165,943	0,080	0,083
-399,438	-200,000	-0,004	0,185
-398,423	-4,790	0,059	0,030
-397,409	-2,509	0,049	0,025
-396,394	280,268	0,025	-0,032
-395,379	-200,000	0,002	-0,075
-394,365	-200,000	0,016	0,072
-393,350	-200,000	-0,007	-0,073
-392,336	97,138	0,147	0,124
-391,321	140,032	-0,037	0,036
-390,306	-117,090	0,089	-0,012
-389,292	30,363	-0,044	0,028
-388,277	63,852	-0,106	0,078
-387,263	800,000	0,037	0,112
-386,248	-80,568	0,119	-0,029
-385,233	196,869	0,042	-0,047
-384,219	143,992	-0,085	0,083
-383,204	-200,000	-0,007	0,039
-382,190	425,176	0,042	-0,067
-381,175	163,029	0,040	-0,041
-380,160	224,969	-0,090	0,107
-379,146	-200,000	0,014	0,058
-378,131	113,724	0,083	0,074
-377,117	-200,000	0,008	0,081
-376,102	176,068	0,040	-0,043
-375,088	800,000	0,051	-0,114
-374,073	353,523	-0,039	0,058
-373,058	-186,583	-0,114	-0,001
-372,044	-64,528	0,077	-0,023
-371,029	-200,000	-0,000	0,186
-370,015	-200,000	-0,028	-0,100
-369,000	171,170	0,013	0,014
-367,985	260,773	-0,043	-0,054
-366,971	510,380	0,020	0,035
-365,956	221,020	0,109	0,128
-364,942	24,098	0,072	0,043
-363,927	68,866	-0,039	-0,030
-362,912	-57,534	-0,012	-0,004
-361,898	155,195	-0,067	0,068
-360,883	265,302	-0,046	-0,059
-359,869	198,335	0,086	-0,096
-358,854	174,131	0,114	0,121
-357,839	800,000	0,041	0,099
-356,825	2,859	-0,041	-0,022
-355,810	-200,000	-0,004	-0,124
-354,796	-200,000	0,001	-0,048
-353,781	-127,791	0,049	-0,005
-352,766	-200,000	-0,004	0,097
-351,752	535,026	-0,111	-0,194
-350,737	-200,000	0,009	0,039
-349,723	800,000	0,063	0,155
-348,708	800,000	0,026	0,058
-347,693	-200,000	0,004	-0,039
-346,679	342,626	-0,033	0,047
-345,664	26,881	-0,025	-0,015
-344,650	-200,000	0,014	-0,067
-343,635	-200,000	0,034	0,147
-342,620	-176,081	-0,093	0,002
-341,606	-131,896	-0,039	0,004
-340,591	-68,601	0,036	0,010
-339,577	-13,120	-0,059	0,028
-338,562	212,721	0,016	-0,018
-337,548	11,738	-0,052	0,029
-336,533	-147,532	0,060	-0,004
-335,518	-200,000	0,007	0,040
-334,504	198,271	0,064	0,072
-333,489	-190,583	-0,184	-0,001
-332,475	-63,539	0,041	0,012
-331,460	61,597	-0,057	-0,041
-330,445	-78,375	-0,051	-0,013
-329,431	495,888	-0,025	0,042
-328,416	92,426	0,092	-0,076
-327,402	81,727	0,082	-0,065
-326,387	128,959	-0,075	-0,070
-325,372	-200,000	-0,044	-0,193
-324,358	800,000	-0,060	-0,165
-323,343	106,447	-0,037	-0,032
-322,329	229,096	-0,048	0,058
-321,314	87,300	-0,023	-0,018
-320,299	59,580	0,013	0,009
-319,285	56,451	-0,029	0,021
-318,270	-30,251	0,017	-0,007
-317,256	-47,322	-0,072	-0,025
-316,241	322,065	-0,063	-0,089
-315,226	348,568	0,090	0,130
-314,212	-200,000	0,032	0,212
-313,197	-200,000	-0,035	0,138
-312,183	800,000	-0,042	-0,097
-311,168	-111,508	0,157	-0,023
-310,153	-200,000	-0,008	0,068
-309,139	-127,161	-0,026	0,003
-308,124	31,375	-0,130	0,082
-307,110	-200,000	0,006	-0,031
-306,095	-27,878	0,083	0,035
-305,080	17,400	0,042	0,025
-304,066	1,648	0,046	0,024
-303,051	42,216	0,062	-0,041
-302,037	800,000	-0,043	-0,115
-301,022	190,371	-0,039	-0,043
-300,008	-122,765	0,092	0,011
-298,993	-200,000	-0,004	-0,063
-297,978	316,956	0,068	0,094
-296,964	800,000	-0,046	0,115
-295,949	-84,343	0,074	0,017
-294,935	265,574	-0,060	0,077
-293,920	800,000	0,058	0,133
-292,905	-200,000	0,021	-0,069
-291,891	-87,585	0,042	-0,009
-290,876	153,745	-0,023	0,023
-289,862	-57,834	-0,094	-0,030
-288,847	126,247	0,057	-0,053
-287,832	-200,000	0,008	0,067
-286,818	800,000	0,016	-0,049
-285,803	311,253	0,072	0,099
-284,789	82,989	0,069	0,055
-283,774	-19,261	0,048	-0,022
-282,759	131,115	-0,089	0,084
-281,745	79,494	-0,085	0,067
-280,730	-162,715	-0,028	-0,001
-279,716	800,000	0,033	-0,093
-278,701	280,557	-0,032	-0,042
-277,686	-163,790	0,054	-0,002
-276,672	216,289	0,033	0,038
-275,657	162,658	-0,047	-0,048
-274,643	-130,246	-0,083	0,008
-273,628	471,546	0,030	-0,050
-272,613	800,000	-0,080	-0,230
-271,599	-104,193	0,157	-0,026
-270,584	-175,864	-0,113	0,002
-269,570	142,157	0,080	0,077
-268,555	-200,000	0,005	0,099
-267,540	-200,000	0,000	-0,177
-266,526	205,895	0,043	0,048
-265,511	-132,845	-0,096	-0,009
-264,497	-93,070	0,127	0,026
-263,482	-200,000	0,016	-0,070
-262,467	13,945	-0,032	-0,018
-261,453	94,942	0,067	-0,056
-260,438	-74,864	0,133	0,035
-259,424	-66,878	-0,252	0,072
-258,409	312,801	0,019	0,027
-257,395	176,749	-0,064	-0,068
-256,380	289,729	0,073	0,097
-255,365	179,049	-0,007	0,008
-254,351	507,125	0,003	-0,006
-253,336	486,458	0,038	0,064
-252,322	32,389	-0,081	0,051
-251,307	-17,005	0,054	-0,025
-250,292	800,000	0,009	0,030
-249,278	-200,000	-0,015	-0,174
-248,263	-200,000	-0,000	0,110
-247,249	126,651	0,057	-0,053
-246,234	-200,000	0,046	-0,162
-245,219	672,984	-0,017	-0,033
-244,205	-86,033	-0,136	0,031
-243,190	320,162	0,089	-0,124
-242,176	-200,000	0,000	0,023
-241,161	797,193	0,043	-0,087
-240,146	106,551	0,080	0,070
-239,132	282,795	0,076	-0,099
-238,117	487,667	-0,060	-0,101
-237,103	-55,230	-0,055	-0,018
-236,088	0,568	0,075	0,039
-235,073	27,310	-0,053	0,032
-234,059	800,000	-0,046	0,105
-233,044	-200,000	-0,023	0,135
-232,030	-200,000	-0,026	0,176
-231,015	10,370	0,082	-0,045
-230,000	-146,925	-0,017	0,001
-228,986	-143,710	-0,164	0,011
-227,971	-200,000	0,034	0,129
-226,957	80,523	0,110	0,087
-225,942	-84,694	-0,167	-0,038
-224,927	-100,418	0,088	0,016
-223,913	800,000	0,031	-0,078
-222,898	232,302	-0,042	-0,050
-221,884	800,000	0,044	-0,137
-220,869	-200,000	0,050	0,183
-219,855	-200,000	0,016	0,065
-218,840	67,591	0,118	0,088
-217,825	-182,961	-0,153	-0,002
-216,811	-200,000	-0,011	-0,322
-215,796	-200,000	0,008	0,106
-214,782	-86,613	-0,217	0,048
-213,767	447,214	0,053	-0,086
-212,752	-200,000	-0,007	0,049
-211,738	151,214	0,132	0,131
-210,723	39,709	-0,080	-0,053
-209,709	-200,000	0,004	-0,025
-208,694	-63,675	0,098	-0,029
-207,679	50,836	0,136	-0,094
-206,665	299,925	0,060	0,081
-205,650	-200,000	0,001	-0,029
-204,636	428,155	-0,071	0,113
-203,621	-123,911	0,030	-0,003
-202,606	-21,452	-0,031	0,014
-201,592	-48,757	0,036	-0,013
-200,577	681,130	-0,014	-0,026
-199,563	-178,903	0,047	0,001
-198,548	-46,217	0,145	-0,052
-197,533	-93,701	0,080	-0,016
-196,519	-200,000	-0,019	0,066
-195,504	-107,512	-0,073	0,012
-194,490	12,755	-0,031	0,018
-193,475	-31,815	0,007	-0,003
-192,460	323,240	-0,076	0,106
-191,446	27,194	0,029	0,017
-190,431	2,320	0,102	0,054
-189,417	-48,861	-0,138	0,048
-188,402	-25,512	0,112	-0,048
-187,387	800,000	-0,038	0,094
-186,373	-91,511	-0,055	0,011
-185,358	-90,013	-0,029	0,006
-184,344	105,099	0,065	0,056
-183,329	-69,272	-0,110	-0,031
-182,315	800,000	-0,028	0,070
-181,300	77,911	-0,107	-0,083
-180,285	800,000	-0,034	0,079
-179,271	245,320	-0,132	-0,162
-178,256	-138,161	-0,023	-0,002
-177,242	-200,000	-0,015	-0,058
-176,227	-105,239	-0,061	0,010
-175,212	-152,065	0,085	-0,004
-174,198	-200,000	0,057	0,201
-173,183	800,000	-0,041	0,113
-172,169	800,000	-0,008	-0,018
-171,154	-200,000	0,015	-0,119
-170,139	-1,867	0,058	-0,030
-169,125	-6,663	0,030	0,015
-168,110	481,505	0,060	0,099
-167,096	154,590	0,121	0,122
-166,081	248,163	0,062	0,077
-165,066	48,188	0,072	0,049
-164,052	142,717	0,124	-0,120
-163,037	212,802	-0,012	-0,014
-162,023	800,000	0,015	-0,036
-161,008	-19,431	-0,039	-0,017
-159,993	-200,000	0,039	-0,186
-158,979	-200,000	-0,008	-0,088
-157,964	194,743	-0,044	0,049
-156,950	800,000	0,089	-0,215
-155,935	106,394	0,099	-0,085
-154,920	-109,450	-0,045	0,007
-153,906	800,000	0,039	0,098
-152,891	-143,733	-0,054	-0,004
-151,877	-64,519	0,102	-0,030
-150,862	161,457	-0,038	-0,039
-149,847	-200,000	-0,002	0,157
-148,833	-20,676	-0,155	0,069
-147,818	257,188	0,069	0,087
-146,804	-200,000	-0,003	0,025
-145,789	442,001	0,115	0,183
-144,775	12,461	-0,083	0,046
-143,760	138,371	-0,078	-0,074
-142,745	-162,510	-0,113	0,004
-141,731	196,248	-0,136	-0,151
-140,716	94,270	0,074	0,061
-139,702	169,196	0,082	-0,085
-138,687	800,000	-0,029	0,093
-137,672	109,904	0,036	-0,032
-136,658	506,886	-0,021	0,036
-135,643	-200,000	0,011	0,120
-134,629	-107,263	-0,033	-0,005
-133,614	53,145	0,071	-0,050
-132,599	-47,743	-0,133	0,047
-131,585	111,440	-0,032	-0,028
-130,570	800,000	0,020	0,044
-129,556	119,504	0,031	0,028
-128,541	-39,808	-0,086	-0,033
-127,526	800,000	-0,032	0,072
-126,512	278,286	-0,019	-0,025
-125,497	-200,000	0,007	0,072
-124,483	522,319	-0,050	0,086
-123,468	800,000	-0,018	-0,038
-122,453	-31,046	-0,074	0,030
-121,439	187,305	-0,040	-0,044
-120,424	420,614	-0,062	0,097
-119,410	185,980	0,042	-0,045
-118,395	-200,000	0,025	0,098
