DTS Sentinel unit serial number:	SN410029Multiplexer serial number:	ORYXHardware model number:	OX2-SRSoftware version number:	ORYX F/W v4,00 Oryx Data Collector v3.7.2.0data status	okinstallation	B6 Nyhavnadifferential loss correction	single-endedforward channel	channel 2reverse channel	N/Adate	2023/12/10time	15:20:08forward acquisition time	300,00reverse acquisition time	0,00gamma	499,1914k internal	0,3122k external	0,3122temperature offset calibration	1,0000default loss term (dB/km)	0,3820temperature slope calibration	1,0000multiplexer offset coefficient	1,0000multiplexer slope coefficient	1,0000fibre end	0,00T internal ref (°C)	22,45T ext. ref 1 (°C)	5,92T ext. ref 2 (°C)	5,93length (m)	temperature (°C)	Stokes	anti-Stokes-744,400	170,391	0,145	-0,155
-743,385	-166,073	-0,256	0,008
-742,371	-200,000	0,017	-0,088
-741,356	190,965	-0,100	0,113
-740,342	-40,170	0,089	-0,034
-739,327	106,985	-0,136	0,121
-738,312	47,537	-0,025	0,018
-737,298	-116,435	-0,197	0,027
-736,283	-142,444	0,222	0,016
-735,269	-27,219	-0,227	0,098
-734,254	-64,971	0,183	-0,055
-733,239	-109,748	-0,464	-0,072
-732,225	-200,000	-0,005	-0,170
-731,210	-200,000	0,008	-0,039
-730,196	-200,000	-0,084	0,000
-729,181	-13,760	-0,118	-0,057
-728,167	-166,259	0,043	-0,001
-727,152	-13,019	0,166	0,080
-726,137	-43,100	-0,012	0,004
-725,123	-200,000	0,001	-0,090
-724,108	-70,781	-0,048	0,013
-723,094	28,811	0,171	-0,108
-722,079	269,650	-0,113	-0,148
-721,064	800,000	0,027	0,062
-720,050	143,022	0,097	-0,096
-719,035	-200,000	0,011	-0,055
-718,021	276,924	0,049	0,065
-717,006	-200,000	-0,036	-0,213
-715,991	-200,000	-0,018	-0,115
-714,977	-6,534	0,046	-0,023
-713,962	-145,953	0,064	-0,004
-712,948	-5,863	-0,086	-0,044
-711,933	-7,415	0,042	0,021
-710,918	667,583	-0,040	0,077
-709,904	800,000	0,040	-0,117
-708,889	88,244	-0,066	-0,055
-707,875	201,266	-0,082	-0,094
-706,860	800,000	0,021	0,050
-705,845	-9,361	0,025	0,012
-704,831	-77,833	0,042	-0,011
-703,816	800,000	-0,008	0,022
-702,802	-200,000	-0,023	0,122
-701,787	418,264	0,021	0,034
-700,772	-27,268	-0,028	0,012
-699,758	-200,000	0,015	-0,083
-698,743	-9,894	-0,080	0,040
-697,729	458,886	0,052	-0,087
-696,714	406,820	0,034	0,053
-695,699	800,000	-0,046	0,123
-694,685	800,000	0,003	-0,009
-693,670	261,843	0,027	0,035
-692,656	800,000	0,042	-0,123
-691,641	-200,000	0,002	-0,042
-690,627	246,040	-0,066	0,083
-689,612	-158,647	-0,076	0,003
-688,597	5,932	-0,025	-0,014
-687,583	36,663	-0,064	-0,042
-686,568	-35,515	0,029	-0,012
-685,554	114,665	0,039	-0,036
-684,539	-63,893	0,135	-0,041
-683,524	45,413	-0,011	-0,008
-682,510	-48,805	-0,053	-0,019
-681,495	304,644	-0,096	-0,133
-680,481	-200,000	-0,004	-0,076
-679,466	800,000	-0,049	-0,114
-678,451	408,980	0,036	-0,058
-677,437	-200,000	-0,016	-0,064
-676,422	61,964	0,050	-0,037
-675,408	-135,902	-0,062	0,005
-674,393	-158,840	0,114	-0,005
-673,378	-8,952	-0,129	-0,064
-672,364	-68,351	0,066	0,019
-671,349	-200,000	-0,002	-0,180
-670,335	-124,947	0,062	0,007
-669,320	143,850	-0,068	-0,068
-668,305	741,229	-0,014	0,028
-667,291	617,791	-0,060	-0,113
-666,276	-37,307	-0,246	-0,097
-665,262	-36,281	-0,152	0,061
-664,247	-200,000	-0,006	-0,060
-663,232	-200,000	-0,003	-0,044
-662,218	-184,483	-0,035	0,000
-661,203	-200,000	0,019	0,076
-660,189	6,218	0,051	-0,028
-659,174	-200,000	-0,035	-0,151
-658,159	-200,000	0,024	0,112
-657,145	-107,804	0,047	-0,008
-656,130	-200,000	-0,024	0,082
-655,116	-95,890	0,125	-0,024
-654,101	-1,055	0,058	-0,031
-653,086	-112,401	-0,211	0,031
-652,072	650,676	0,020	0,037
-651,057	27,516	-0,069	-0,043
-650,043	146,221	0,061	-0,061
-649,028	50,667	-0,041	-0,029
-648,014	-57,401	0,121	-0,039
-646,999	800,000	0,047	0,115
-645,984	48,419	0,033	0,023
-644,970	-122,278	-0,064	0,008
-643,955	-11,625	-0,058	0,028
-642,941	-200,000	-0,003	0,026
-641,926	160,958	-0,074	0,077
-640,911	299,265	-0,017	0,023
-639,897	-200,000	0,011	-0,187
-638,882	353,713	-0,064	-0,095
-637,868	2,183	-0,032	-0,017
-636,853	-130,968	-0,061	0,006
-635,838	591,509	0,074	-0,136
-634,824	-200,000	-0,038	-0,125
-633,809	69,677	-0,043	0,033
-632,795	212,922	0,054	-0,064
-631,780	575,397	-0,058	-0,106
-630,765	-200,000	-0,019	0,062
-629,751	-128,937	-0,106	0,011
-628,736	-200,000	-0,020	-0,068
-627,722	800,000	0,041	-0,126
-626,707	331,242	-0,028	-0,041
-625,692	-200,000	0,009	0,089
-624,678	-11,288	-0,020	-0,010
-623,663	-200,000	-0,026	-0,141
-622,649	800,000	0,058	-0,130
-621,634	98,680	0,081	0,069
-620,619	-0,672	-0,062	-0,032
-619,605	-13,788	0,114	-0,054
-618,590	72,438	0,022	-0,017
-617,576	118,107	-0,103	0,094
-616,561	23,458	0,067	-0,041
-615,546	91,362	-0,086	0,072
-614,532	-156,743	0,143	0,006
-613,517	8,566	-0,119	-0,067
-612,503	-200,000	-0,008	0,067
-611,488	72,206	0,029	-0,022
-610,474	800,000	-0,023	-0,050
-609,459	66,729	0,075	-0,057
-608,444	-134,101	-0,077	0,007
-607,430	651,438	0,020	0,039
-606,415	-200,000	-0,015	-0,056
-605,401	-54,657	0,094	0,031
-604,386	-200,000	-0,038	-0,182
-603,371	800,000	0,016	-0,051
-602,357	-107,915	-0,042	-0,007
-601,342	-35,771	0,025	-0,010
-600,328	-200,000	0,011	-0,096
-599,313	-200,000	-0,009	-0,163
-598,298	-0,076	0,163	0,086
-597,284	800,000	0,062	-0,194
-596,269	800,000	0,058	-0,124
-595,255	347,852	-0,050	-0,073
-594,240	-91,554	-0,062	0,013
-593,225	169,606	0,025	-0,026
-592,211	800,000	-0,004	-0,010
-591,196	129,252	0,019	0,018
-590,182	-200,000	-0,020	0,112
-589,167	124,570	0,155	0,145
-588,152	403,731	0,054	0,085
-587,138	-29,068	0,066	-0,028
-586,123	-130,859	-0,101	-0,010
-585,109	135,155	-0,073	0,070
-584,094	520,398	0,048	-0,083
-583,079	508,688	-0,002	-0,004
-582,065	-36,335	0,073	0,029
-581,050	-75,936	0,010	0,003
-580,036	-10,521	-0,029	-0,014
-579,021	-200,000	-0,007	-0,094
-578,006	-200,000	0,015	-0,105
-576,992	79,414	0,022	-0,018
-575,977	799,103	-0,020	-0,041
-574,963	-104,045	0,175	0,030
-573,948	800,000	0,030	0,098
-572,934	-200,000	0,006	0,073
-571,919	0,482	0,043	0,023
-570,904	-80,619	0,086	0,021
-569,890	136,860	0,070	-0,068
-568,875	39,457	0,127	-0,084
-567,861	-200,000	0,007	0,052
-566,846	241,660	0,067	0,083
-565,831	6,399	0,067	-0,037
-564,817	-122,481	-0,152	-0,018
-563,802	-159,975	-0,083	-0,003
-562,788	88,302	-0,117	0,096
-561,773	-200,000	-0,004	-0,021
-560,758	41,232	0,068	0,045
-559,744	-18,206	0,112	0,052
-558,729	800,000	0,025	0,053
-557,715	62,810	0,035	0,026
-556,700	254,259	-0,065	-0,082
-555,685	-200,000	-0,013	0,109
-554,671	800,000	-0,042	-0,102
-553,656	353,635	0,034	0,050
-552,642	626,239	-0,026	-0,049
-551,627	-21,668	0,106	-0,048
-550,612	-200,000	0,023	-0,089
-549,598	659,105	0,083	-0,159
-548,583	-200,000	0,022	-0,110
-547,569	-144,619	0,063	-0,004
-546,554	-200,000	0,063	0,236
-545,539	-200,000	-0,021	0,179
-544,525	666,753	0,047	-0,091
-543,510	-125,661	0,117	0,013
-542,496	538,566	0,041	-0,072
-541,481	-99,350	-0,106	0,020
-540,466	-200,000	0,005	0,064
-539,452	-131,215	-0,081	0,008
-538,437	326,902	0,062	0,089
-537,423	235,877	-0,107	-0,132
-536,408	-200,000	-0,005	0,021
-535,393	-26,561	0,102	-0,044
-534,379	518,269	-0,042	-0,073
-533,364	74,357	-0,071	-0,055
-532,350	-79,207	0,149	-0,037
-531,335	70,836	0,086	0,066
-530,321	202,009	0,062	0,071
-529,306	-200,000	-0,010	0,033
-528,291	6,505	-0,040	0,022
-527,277	-4,065	0,023	-0,012
-526,262	373,895	-0,063	-0,096
-525,248	-27,882	0,146	-0,062
-524,233	-69,452	0,055	0,015
-523,218	-92,705	-0,075	0,015
-522,204	-200,000	0,025	0,156
-521,189	800,000	0,036	-0,087
-520,175	-68,941	-0,116	-0,033
-519,160	-102,651	-0,074	-0,013
-518,145	251,503	-0,066	-0,083
-517,131	230,553	0,106	0,128
-516,116	800,000	-0,029	0,090
-515,102	-142,869	-0,070	0,005
-514,087	-200,000	-0,002	0,033
-513,072	567,236	-0,054	0,098
-512,058	229,553	0,027	-0,032
-511,043	215,642	0,043	0,050
-510,029	-200,000	0,007	-0,089
-509,014	-57,763	-0,053	-0,017
-507,999	800,000	-0,001	-0,004
-506,985	-200,000	-0,023	-0,102
-505,970	51,409	-0,071	0,049
-504,956	215,871	-0,108	-0,127
-503,941	-2,034	0,122	0,063
-502,926	-129,290	-0,075	-0,008
-501,912	-26,791	0,086	-0,037
-500,897	-200,000	-0,009	0,113
-499,883	15,395	0,083	0,048
-498,868	-200,000	-0,028	-0,112
-497,853	-110,970	-0,121	0,018
-496,839	-71,306	0,048	0,013
-495,824	130,291	0,019	-0,018
-494,810	-135,533	0,123	-0,011
-493,795	-130,488	-0,073	0,007
-492,781	-103,161	-0,080	-0,014
-491,766	-53,589	-0,097	0,032
-490,751	-200,000	-0,008	-0,064
-489,737	-26,959	0,126	-0,054
-488,722	-200,000	0,005	-0,064
-487,708	-148,117	0,019	0,001
-486,693	90,279	-0,058	0,048
-485,678	680,344	-0,053	0,103
-484,664	-200,000	-0,014	-0,127
-483,649	366,833	0,029	-0,043
-482,635	2,655	-0,113	-0,061
-481,620	615,702	0,043	0,080
-480,605	-52,262	0,121	0,041
-479,591	-200,000	0,004	-0,031
-478,576	-96,549	-0,100	0,019
-477,562	358,433	0,054	0,080
-476,547	364,685	-0,026	0,038
-475,532	-200,000	0,003	-0,039
-474,518	-161,714	-0,104	0,004
-473,503	224,980	0,040	0,048
-472,489	800,000	0,024	0,072
-471,474	-46,554	0,056	-0,020
-470,459	-56,301	0,036	0,012
-469,445	102,230	0,042	-0,036
-468,430	-200,000	-0,007	-0,062
-467,416	422,774	0,043	0,068
-466,401	-61,196	0,132	0,041
-465,386	421,947	-0,038	0,060
-464,372	410,270	0,029	-0,046
-463,357	18,831	-0,114	0,067
-462,343	111,065	-0,021	0,019
-461,328	800,000	-0,033	-0,090
-460,313	800,000	-0,026	-0,073
-459,299	389,487	-0,107	0,164
-458,284	-200,000	0,025	0,126
-457,270	-133,799	0,025	-0,002
-456,255	-28,230	0,043	0,018
-455,241	-200,000	0,017	-0,066
-454,226	-200,000	-0,008	-0,068
-453,211	-35,113	-0,152	0,061
-452,197	-120,839	0,119	0,015
-451,182	-44,050	0,072	0,027
-450,168	-200,000	-0,010	-0,084
-449,153	460,333	-0,067	-0,111
-448,138	453,247	-0,101	-0,165
-447,124	351,169	0,083	-0,122
-446,109	-57,967	0,065	0,021
-445,095	-47,606	0,072	-0,026
-444,080	-30,105	0,083	-0,035
-443,065	451,505	-0,033	-0,054
-442,051	-36,929	0,030	0,012
-441,036	-200,000	-0,007	0,107
-440,022	800,000	0,047	-0,128
-439,007	-111,338	0,025	-0,004
-437,992	800,000	-0,059	-0,134
-436,978	1,270	-0,045	-0,024
-435,963	-118,577	-0,137	0,018
-434,949	-200,000	-0,022	0,073
-433,934	-72,413	0,056	-0,015
-432,919	-171,699	-0,110	-0,003
-431,905	768,641	-0,077	0,156
-430,890	-67,573	0,182	0,052
-429,876	218,437	-0,059	-0,070
-428,861	29,086	0,076	-0,047
-427,846	12,665	-0,045	0,025
-426,832	276,307	-0,017	-0,022
-425,817	800,000	0,047	0,120
-424,803	371,386	-0,051	-0,076
-423,788	-87,304	-0,150	0,033
-422,773	268,898	0,124	0,161
-421,759	-159,461	-0,079	0,003
-420,744	293,308	0,071	-0,095
-419,730	446,090	0,049	0,079
-418,715	-200,000	0,015	-0,100
-417,701	95,615	-0,003	0,002
-416,686	-114,678	0,132	0,018
-415,671	101,252	0,037	-0,032
-414,657	250,237	0,047	0,059
-413,642	-200,000	0,042	0,137
-412,628	81,054	0,058	-0,046
-411,613	-36,923	-0,123	-0,048
-410,598	6,862	-0,052	-0,028
-409,584	800,000	-0,013	-0,034
-408,569	-124,579	-0,138	0,016
-407,555	302,594	-0,009	-0,013
-406,540	20,527	-0,146	-0,087
-405,525	287,751	-0,075	0,100
-404,511	-200,000	-0,001	-0,022
-403,496	-63,704	-0,100	0,030
-402,482	-200,000	0,027	0,136
-401,467	-200,000	-0,014	0,069
-400,452	-132,416	0,103	0,010
-399,438	95,586	0,085	0,071
-398,423	800,000	-0,024	0,056
-397,409	-200,000	0,004	0,019
-396,394	279,547	0,050	-0,065
-395,379	-168,741	-0,074	0,002
-394,365	-82,238	0,055	0,013
-393,350	288,954	-0,101	0,135
-392,336	-200,000	-0,011	0,103
-391,321	43,087	-0,084	0,056
-390,306	-67,280	-0,132	-0,038
-389,292	25,315	-0,091	-0,056
-388,277	63,223	0,060	0,044
-387,263	55,602	0,056	0,040
-386,248	800,000	0,026	-0,075
-385,233	-200,000	-0,010	0,033
-384,219	586,110	-0,044	-0,080
-383,204	800,000	0,017	0,048
-382,190	215,018	-0,036	0,042
-381,175	6,725	0,021	0,012
-380,160	459,828	0,057	-0,094
-379,146	-200,000	0,028	0,134
-378,131	-200,000	-0,001	0,077
-377,117	-62,899	0,032	0,010
-376,102	38,004	-0,132	-0,086
-375,088	-200,000	-0,034	-0,159
-374,073	42,951	-0,039	-0,026
-373,058	445,940	0,107	0,173
-372,044	-80,274	0,172	0,042
-371,029	182,539	0,103	0,112
-370,015	29,764	-0,035	0,022
-369,000	171,501	-0,046	-0,048
-367,985	-200,000	0,002	0,060
-366,971	-200,000	-0,029	-0,103
-365,956	800,000	0,023	-0,052
-364,942	-200,000	0,022	-0,105
-363,927	93,916	-0,032	0,027
-362,912	-12,238	0,102	0,049
-361,898	84,351	0,049	0,039
-360,883	44,908	-0,101	-0,069
-359,869	-200,000	0,038	0,168
-358,854	-200,000	-0,014	0,085
-357,839	-5,171	0,082	0,041
-356,825	-43,709	-0,145	0,053
-355,810	-12,515	-0,032	-0,015
-354,796	800,000	-0,048	0,135
-353,781	800,000	0,012	-0,039
-352,766	54,429	-0,117	-0,082
-351,752	298,526	0,050	0,067
-350,737	42,396	-0,039	-0,026
-349,723	-190,625	-0,143	-0,001
-348,708	-38,721	0,071	0,027
-347,693	36,096	0,018	-0,011
-346,679	800,000	0,071	-0,146
-345,664	-200,000	0,007	-0,073
-344,650	7,920	0,053	-0,029
-343,635	-200,000	-0,014	0,133
-342,620	132,799	0,030	0,029
-341,606	800,000	0,015	0,040
-340,591	-68,155	-0,162	-0,046
-339,577	224,243	0,052	-0,062
-338,562	800,000	-0,093	-0,191
-337,548	800,000	-0,065	-0,135
-336,533	124,082	0,037	-0,034
-335,518	759,359	0,008	0,016
-334,504	-14,455	-0,212	-0,100
-333,489	-200,000	0,017	-0,060
-332,475	127,841	0,090	-0,084
-331,460	-94,924	0,080	-0,016
-330,445	-101,503	-0,101	0,018
-329,431	425,334	0,033	0,052
-328,416	-44,669	0,121	0,044
-327,402	146,640	-0,058	-0,057
-326,387	217,238	0,013	0,015
-325,372	42,276	-0,068	0,045
-324,358	-113,361	0,016	-0,002
-323,343	255,464	0,045	-0,057
-322,329	-29,922	0,127	-0,053
-321,314	-145,492	0,102	-0,007
-320,299	-200,000	-0,010	-0,114
-319,285	181,116	-0,063	0,068
-318,270	103,738	-0,065	-0,056
-317,256	-200,000	-0,003	0,055
-316,241	-200,000	-0,008	-0,049
-315,226	-100,331	-0,137	0,025
-314,212	78,970	0,093	-0,073
-313,197	-139,647	0,076	-0,006
-312,183	800,000	0,014	-0,039
-311,168	-104,018	-0,118	-0,020
-310,153	58,277	-0,151	-0,108
-309,139	5,118	-0,168	0,090
-308,124	-200,000	0,016	0,059
-307,110	202,860	-0,014	0,016
-306,095	7,236	0,072	0,039
-305,080	-152,433	-0,098	-0,005
-304,066	800,000	-0,029	-0,090
-303,051	-200,000	0,007	-0,029
-302,037	-200,000	-0,026	-0,115
-301,022	800,000	-0,023	-0,057
-300,008	-200,000	0,048	0,212
-298,993	121,656	0,039	-0,036
-297,978	800,000	0,029	0,082
-296,964	153,872	0,029	0,029
-295,949	65,755	-0,025	0,019
-294,935	316,082	-0,085	-0,118
-293,920	800,000	-0,026	-0,071
-292,905	-124,681	0,051	0,006
-291,891	-64,449	0,111	0,033
-290,876	153,546	-0,037	0,037
-289,862	-129,829	-0,044	-0,004
-288,847	577,276	-0,045	-0,082
-287,832	-93,387	-0,160	0,032
-286,818	242,474	-0,110	0,136
-285,803	11,109	-0,080	0,045
-284,789	-200,000	-0,002	0,038
-283,774	-82,095	0,182	0,043
-282,759	52,713	-0,055	-0,039
-281,745	800,000	-0,026	0,054
-280,730	-8,944	-0,052	0,025
-279,716	-200,000	0,002	0,087
-278,701	98,941	0,040	-0,034
-277,686	86,622	0,114	-0,092
-276,672	26,080	0,092	0,056
-275,657	-45,551	-0,079	-0,028
-274,643	-64,734	0,093	-0,027
-273,628	-179,385	-0,175	0,003
-272,613	36,872	-0,091	0,059
-271,599	800,000	0,025	-0,058
-270,584	572,598	-0,055	-0,099
-269,570	278,441	-0,119	0,156
-268,555	56,282	0,028	0,020
-267,540	640,709	0,049	-0,091
-266,526	800,000	0,026	-0,074
-265,511	800,000	0,060	-0,147
-264,497	-200,000	-0,021	0,076
-263,482	-200,000	0,025	0,102
-262,467	98,227	0,066	0,056
-261,453	21,524	0,048	-0,028
-260,438	257,066	-0,019	-0,024
-259,424	-110,744	0,045	0,007
-258,409	-136,241	-0,130	0,011
-257,395	77,069	-0,028	0,021
-256,380	800,000	0,035	0,085
-255,365	-200,000	-0,035	0,145
-254,351	-35,224	-0,158	-0,063
-253,336	772,719	0,029	0,058
-252,322	800,000	-0,026	-0,080
-251,307	-22,503	-0,070	0,031
-250,292	44,999	-0,133	-0,089
-249,278	-0,176	-0,073	-0,038
-248,263	340,441	0,104	0,150
-247,249	-7,333	0,069	0,034
-246,234	101,726	-0,047	-0,040
-245,219	209,322	-0,045	-0,052
-244,205	800,000	-0,013	-0,033
-243,190	-152,787	0,156	0,008
-242,176	800,000	-0,082	-0,206
-241,161	228,094	-0,032	0,039
-240,146	157,443	-0,097	0,098
-239,132	-188,263	0,127	0,001
-238,117	53,873	0,069	-0,048
-237,103	-14,186	-0,089	-0,042
-236,088	-200,000	0,038	-0,162
-235,073	800,000	0,021	-0,058
-234,059	133,858	0,044	0,041
-233,044	-25,206	-0,017	-0,007
-232,030	-13,931	0,078	0,037
-231,015	95,218	-0,100	0,083
-230,000	-200,000	-0,035	0,126
-228,986	800,000	0,016	0,039
-227,971	32,142	0,025	0,016
-226,957	-200,000	0,043	0,160
-225,942	-200,000	0,002	0,088
-224,927	-200,000	0,005	0,131
-223,913	-200,000	-0,020	-0,109
-222,898	190,253	0,022	-0,024
-221,884	-119,406	0,039	0,005
-220,869	-200,000	-0,008	-0,034
-219,855	-54,118	0,115	0,038
-218,840	551,325	0,035	0,061
-217,825	-200,000	-0,012	0,089
-216,811	-146,299	0,093	-0,006
-215,796	-49,026	-0,175	0,061
-214,782	-200,000	-0,001	-0,083
-213,767	-200,000	-0,015	-0,088
-212,752	36,468	0,029	0,018
-211,738	-200,000	0,009	-0,078
-210,723	662,093	-0,022	-0,041
-209,709	-47,683	-0,023	0,008
-208,694	32,754	0,100	-0,063
-207,679	-200,000	0,003	0,065
-206,665	300,270	0,069	0,093
-205,650	-130,000	-0,054	0,005
-204,636	103,461	0,095	0,082
-203,621	291,264	-0,106	-0,141
-202,606	-200,000	-0,002	0,084
-201,592	-69,999	-0,109	0,030
-200,577	-200,000	0,007	0,112
-199,563	759,751	0,010	0,020
-198,548	-56,114	0,032	-0,010
-197,533	29,453	0,100	-0,062
-196,519	-200,000	-0,034	0,110
-195,504	800,000	-0,037	-0,115
-194,490	-141,713	-0,019	-0,001
-193,475	82,486	0,056	0,045
-192,460	542,807	0,050	0,088
-191,446	86,653	0,039	0,031
-190,431	272,502	0,050	0,064
-189,417	224,264	0,033	-0,039
-188,402	742,946	-0,030	-0,059
-187,387	-105,364	-0,027	0,004
-186,373	560,395	0,059	0,105
-185,358	222,896	0,034	0,040
-184,344	800,000	-0,016	-0,049
-183,329	-200,000	-0,007	0,055
-182,315	-200,000	-0,001	0,010
-181,300	800,000	-0,016	0,051
-180,285	0,532	0,040	-0,021
-179,271	-200,000	-0,028	-0,119
-178,256	-200,000	-0,006	-0,035
-177,242	800,000	-0,032	0,091
-176,227	-200,000	0,004	0,043
-175,212	82,937	0,080	0,063
-174,198	469,840	0,085	0,140
-173,183	-50,985	-0,087	0,030
-172,169	800,000	0,032	0,100
-171,154	-12,546	-0,113	-0,054
-170,139	77,996	0,048	0,037
-169,125	800,000	0,040	0,122
-168,110	-0,481	-0,112	-0,058
-167,096	-20,181	0,109	0,049
-166,081	36,138	-0,131	-0,084
-165,066	-119,695	-0,061	0,008
-164,052	123,215	0,029	-0,026
-163,037	703,382	-0,025	0,048
-162,023	-126,308	0,134	0,014
-161,008	-200,000	-0,002	0,128
-159,993	-117,404	0,070	0,009
-158,979	314,244	0,008	0,011
-157,964	64,720	0,028	0,021
-156,950	-200,000	0,012	-0,038
-155,935	59,166	-0,091	-0,065
-154,920	-200,000	0,011	0,040
-153,906	29,877	0,045	-0,028
-152,891	25,988	0,061	0,037
-151,877	106,903	-0,108	0,093
-150,862	62,169	-0,062	0,045
-149,847	-4,931	-0,026	-0,013
-148,833	-200,000	0,022	0,178
-147,818	467,227	0,080	0,131
-146,804	-36,062	0,071	-0,028
-145,789	273,820	-0,062	0,079
-144,775	-104,710	0,040	0,007
-143,760	-200,000	0,017	-0,080
-142,745	-200,000	0,035	0,125
-141,731	800,000	0,021	-0,058
-140,716	42,513	0,024	-0,016
-139,702	143,634	0,069	-0,067
-138,687	-200,000	-0,011	0,040
-137,672	254,287	-0,078	0,097
-136,658	27,871	0,090	-0,055
-135,643	476,312	0,100	-0,166
-134,629	-14,704	0,061	-0,028
-133,614	-200,000	-0,013	-0,060
-132,599	-106,547	0,085	0,014
-131,585	800,000	-0,014	-0,034
-130,570	69,645	-0,077	0,057
-129,556	-184,516	0,043	0,000
-128,541	-99,820	0,045	-0,008
-127,526	-200,000	0,003	-0,070
-126,512	-200,000	0,003	0,163
-125,497	-67,085	0,078	0,022
-124,483	234,372	-0,034	-0,041
-123,468	800,000	0,035	-0,080
-122,453	-75,545	-0,109	-0,028
-121,439	90,669	0,074	0,061
-120,424	-182,652	-0,032	0,000
-119,410	26,549	0,038	0,023
-118,395	111,368	0,079	0,069
