DTS Sentinel unit serial number:	SN410029Multiplexer serial number:	ORYXHardware model number:	OX2-SRSoftware version number:	ORYX F/W v4,00 Oryx Data Collector v3.7.2.0data status	okinstallation	B6 Nyhavnadifferential loss correction	single-endedforward channel	channel 2reverse channel	N/Adate	2023/12/10time	17:25:08forward acquisition time	300,00reverse acquisition time	0,00gamma	499,1914k internal	0,3123k external	0,3123temperature offset calibration	1,0000default loss term (dB/km)	0,3820temperature slope calibration	1,0000multiplexer offset coefficient	1,0000multiplexer slope coefficient	1,0000fibre end	0,00T internal ref (°C)	22,41T ext. ref 1 (°C)	6,08T ext. ref 2 (°C)	6,10length (m)	temperature (°C)	Stokes	anti-Stokes-744,400	-200,000	-0,008	-0,152
-743,385	86,018	-0,168	0,137
-742,371	-34,769	-0,004	0,002
-741,356	-200,000	-0,035	0,201
-740,342	-132,760	0,032	0,003
-739,327	-57,116	-0,199	-0,065
-738,312	70,072	-0,110	-0,085
-737,298	133,201	-0,210	0,203
-736,283	657,976	0,019	0,037
-735,269	-89,723	-0,141	-0,031
-734,254	-200,000	0,009	0,042
-733,239	-46,727	-0,398	-0,145
-732,225	-137,380	0,049	-0,004
-731,210	-95,126	-0,038	-0,008
-730,196	-164,106	0,150	0,005
-729,181	-8,730	0,009	-0,005
-728,167	400,093	-0,055	-0,086
-727,152	-74,046	-0,041	-0,011
-726,137	-151,318	-0,067	0,004
-725,123	-122,373	-0,116	0,014
-724,108	-200,000	0,055	-0,182
-723,094	238,073	-0,045	-0,056
-722,079	-7,157	-0,062	0,031
-721,064	800,000	0,039	-0,102
-720,050	333,671	-0,040	-0,058
-719,035	800,000	0,036	0,101
-718,021	-200,000	0,041	-0,151
-717,006	-140,712	-0,167	0,013
-715,991	147,537	-0,064	-0,064
-714,977	533,774	-0,090	-0,159
-713,962	-7,915	0,077	-0,039
-712,948	-25,254	-0,041	-0,018
-711,933	362,170	-0,049	-0,074
-710,918	457,829	-0,060	-0,100
-709,904	-47,574	-0,092	0,033
-708,889	800,000	0,018	-0,052
-707,875	132,281	-0,128	-0,123
-706,860	-200,000	0,000	-0,115
-705,845	-87,930	-0,054	-0,012
-704,831	-200,000	0,004	-0,097
-703,816	800,000	-0,026	0,065
-702,802	-200,000	-0,003	-0,054
-701,787	1,189	-0,075	-0,040
-700,772	674,016	-0,008	0,015
-699,758	521,490	0,021	0,036
-698,743	155,696	0,039	-0,040
-697,729	-200,000	0,035	0,142
-696,714	-200,000	-0,033	-0,136
-695,699	152,724	0,091	0,092
-694,685	443,515	-0,048	-0,078
-693,670	-200,000	-0,001	-0,066
-692,656	-200,000	-0,002	-0,029
-691,641	323,597	-0,042	-0,060
-690,627	-200,000	-0,004	-0,023
-689,612	55,603	-0,062	-0,045
-688,597	800,000	0,044	-0,111
-687,583	403,722	-0,111	-0,175
-686,568	187,492	0,063	-0,070
-685,554	-200,000	-0,020	0,070
-684,539	313,428	0,078	0,109
-683,524	-106,192	-0,122	0,020
-682,510	270,689	0,044	-0,058
-681,495	-69,232	-0,053	0,015
-680,481	353,168	-0,060	-0,088
-679,466	-54,130	-0,043	-0,015
-678,451	-200,000	0,015	-0,080
-677,437	-78,878	0,137	-0,034
-676,422	-164,128	0,107	-0,004
-675,408	21,785	-0,060	-0,036
-674,393	109,089	0,048	-0,043
-673,378	155,116	0,069	-0,071
-672,364	146,531	0,047	0,047
-671,349	264,017	-0,028	0,037
-670,335	-81,655	-0,036	0,009
-669,320	28,558	0,047	-0,029
-668,305	-200,000	-0,001	0,034
-667,291	122,350	-0,071	0,066
-666,276	-200,000	-0,000	-0,096
-665,262	-200,000	0,029	-0,134
-664,247	303,466	0,027	-0,038
-663,232	45,571	-0,016	0,011
-662,218	380,682	-0,068	-0,104
-661,203	-200,000	-0,013	-0,159
-660,189	-200,000	-0,001	-0,087
-659,174	772,478	-0,056	-0,114
-658,159	269,753	-0,048	-0,063
-657,145	-200,000	-0,008	-0,128
-656,130	768,795	-0,035	-0,072
-655,116	50,843	0,020	0,014
-654,101	341,333	-0,015	-0,022
-653,086	244,408	0,039	-0,048
-652,072	120,170	-0,072	0,067
-651,057	51,552	-0,029	0,021
-650,043	-200,000	-0,008	0,080
-649,028	231,478	-0,026	0,032
-648,014	-13,454	0,028	-0,013
-646,999	-200,000	0,014	-0,086
-645,984	299,692	0,063	-0,086
-644,970	350,078	0,041	-0,061
-643,955	254,460	-0,079	0,101
-642,941	199,540	-0,098	-0,112
-641,926	-200,000	0,004	0,109
-640,911	-200,000	0,009	-0,029
-639,897	-92,473	0,079	0,016
-638,882	164,578	-0,016	0,017
-637,868	-200,000	-0,036	-0,152
-636,853	-113,109	-0,112	-0,016
-635,838	800,000	0,045	-0,142
-634,824	-30,106	0,129	0,054
-633,809	-5,464	-0,044	0,022
-632,795	34,444	-0,152	0,098
-631,780	-12,000	-0,159	-0,077
-630,765	64,312	0,046	0,034
-629,751	-200,000	-0,018	-0,059
-628,736	276,145	-0,056	0,073
-627,722	-200,000	-0,021	-0,092
-626,707	47,435	-0,073	0,050
-625,692	-131,320	-0,078	-0,008
-624,678	-200,000	-0,009	0,081
-623,663	-200,000	0,008	-0,039
-622,649	-200,000	-0,010	0,071
-621,634	317,049	-0,132	-0,186
-620,619	-81,312	0,060	-0,014
-619,605	-200,000	-0,037	-0,140
-618,590	-200,000	-0,016	0,053
-617,576	-200,000	-0,014	0,082
-616,561	28,188	0,067	0,042
-615,546	-200,000	-0,013	-0,068
-614,532	71,559	-0,100	-0,077
-613,517	-32,821	0,100	-0,041
-612,503	105,337	0,039	-0,034
-611,488	45,993	0,048	-0,033
-610,474	99,768	-0,026	0,022
-609,459	800,000	-0,024	0,054
-608,444	36,638	0,079	0,051
-607,430	563,194	-0,032	-0,057
-606,415	205,389	-0,100	-0,115
-605,401	46,711	-0,100	0,069
-604,386	-190,412	0,097	-0,001
-603,371	-200,000	-0,019	0,088
-602,357	-73,447	0,014	-0,004
-601,342	800,000	0,053	-0,151
-600,328	-139,471	-0,149	-0,012
-599,313	67,996	-0,034	0,026
-598,298	5,738	0,076	0,042
-597,284	79,677	-0,071	0,056
-596,269	189,685	-0,080	0,089
-595,255	361,237	0,079	0,118
-594,240	196,158	0,023	-0,026
-593,225	87,856	-0,020	-0,017
-592,211	-200,000	0,003	-0,123
-591,196	800,000	-0,038	-0,122
-590,182	-200,000	-0,021	0,150
-589,167	351,658	0,066	0,098
-588,152	800,000	-0,059	-0,141
-587,138	-147,933	-0,101	0,006
-586,123	-12,254	-0,068	-0,033
-585,109	-200,000	0,009	-0,105
-584,094	-200,000	0,000	-0,082
-583,079	-179,899	0,051	-0,001
-582,065	229,759	0,050	-0,060
-581,050	800,000	0,030	0,074
-580,036	733,625	0,086	-0,171
-579,021	800,000	0,023	0,052
-578,006	-200,000	-0,010	-0,052
-576,992	301,896	-0,016	0,021
-575,977	365,033	-0,043	-0,065
-574,963	-3,638	0,088	0,045
-573,948	-134,089	0,084	-0,008
-572,934	800,000	-0,012	-0,039
-571,919	-154,706	-0,092	-0,004
-570,904	84,223	0,040	0,032
-569,890	168,312	0,086	-0,090
-568,875	81,121	-0,046	-0,037
-567,861	62,872	-0,037	0,028
-566,846	441,918	0,111	0,181
-565,831	-200,000	0,012	0,155
-564,817	-124,673	-0,082	-0,009
-563,802	-200,000	-0,004	0,069
-562,788	30,949	0,059	0,037
-561,773	-33,769	0,078	0,032
-560,758	136,284	-0,030	-0,029
-559,744	-24,392	0,113	0,050
-558,729	-140,058	-0,040	-0,003
-557,715	-91,589	-0,016	-0,003
-556,700	-200,000	0,011	0,054
-555,685	-104,081	-0,058	-0,010
-554,671	61,101	-0,081	0,059
-553,656	-188,055	0,094	-0,001
-552,642	49,753	0,118	0,082
-551,627	-49,135	-0,186	0,066
-550,612	-79,604	-0,064	0,016
-549,598	132,609	-0,057	0,054
-548,583	-163,339	0,086	0,003
-547,569	-20,874	-0,088	-0,040
-546,554	368,477	0,041	0,062
-545,539	2,352	0,177	0,094
-544,525	-39,799	-0,106	0,041
-543,510	178,014	0,044	-0,048
-542,496	-16,782	0,044	0,020
-541,481	-200,000	-0,057	-0,212
-540,466	-106,020	-0,281	0,046
-539,452	756,945	0,015	0,030
-538,437	480,975	0,067	0,112
-537,423	-200,000	-0,004	-0,035
-536,408	80,832	0,039	-0,031
-535,393	49,144	-0,065	0,045
-534,379	38,142	0,066	0,043
-533,364	630,115	0,030	-0,056
-532,350	149,542	0,115	-0,115
-531,335	515,552	0,045	0,078
-530,321	-9,097	0,056	-0,028
-529,306	57,206	0,070	-0,051
-528,291	-200,000	-0,007	-0,030
-527,277	-69,391	0,011	0,003
-526,262	748,769	0,055	-0,109
-525,248	84,038	0,018	-0,014
-524,233	22,391	0,041	0,025
-523,218	-150,650	0,136	0,008
-522,204	69,190	0,057	0,043
-521,189	-121,818	-0,173	0,021
-520,175	-165,997	0,041	0,001
-519,160	-200,000	0,010	-0,047
-518,145	-200,000	0,006	0,061
-517,131	-21,837	0,153	0,068
-516,116	-200,000	0,002	0,059
-515,102	149,121	-0,033	0,033
-514,087	-157,855	-0,072	0,003
-513,072	-200,000	0,001	-0,127
-512,058	-74,329	0,086	0,023
-511,043	252,345	0,036	-0,045
-510,029	114,705	-0,070	-0,063
-509,014	340,045	-0,033	-0,047
-507,999	-55,481	-0,069	0,023
-506,985	-83,810	0,138	-0,032
-505,970	-91,599	-0,060	-0,012
-504,956	-200,000	-0,027	-0,123
-503,941	-200,000	0,019	-0,077
-502,926	309,745	0,066	0,092
-501,912	373,868	0,052	0,079
-500,897	441,849	-0,040	-0,064
-499,883	-200,000	-0,002	-0,084
-498,868	-200,000	-0,015	0,079
-497,853	-121,791	-0,023	0,003
-496,839	-200,000	0,007	0,041
-495,824	133,973	0,100	0,096
-494,810	-93,920	-0,063	-0,013
-493,795	286,639	0,060	-0,080
-492,781	153,737	-0,027	0,028
-491,766	557,211	0,014	0,026
-490,751	79,435	0,023	-0,018
-489,737	347,953	-0,027	0,040
-488,722	800,000	-0,071	0,177
-487,708	-152,368	0,235	0,012
-486,693	469,974	0,037	0,061
-485,678	-46,016	-0,093	0,034
-484,664	76,929	-0,069	-0,054
-483,649	-200,000	-0,002	0,042
-482,635	343,255	0,071	-0,103
-481,620	179,705	-0,126	0,136
-480,605	-15,701	-0,062	-0,029
-479,591	-137,221	0,052	0,004
-478,576	-40,332	0,062	0,024
-477,562	-81,315	0,080	0,019
-476,547	800,000	0,026	-0,061
-475,532	254,477	0,056	0,071
-474,518	800,000	-0,013	-0,039
-473,503	-200,000	-0,009	0,099
-472,489	72,227	0,113	0,086
-471,474	-24,490	-0,124	-0,054
-470,459	-200,000	-0,014	-0,097
-469,445	-72,955	-0,186	0,050
-468,430	262,642	0,093	-0,119
-467,416	469,853	-0,010	0,017
-466,401	14,718	-0,133	-0,076
-465,386	790,758	-0,028	-0,056
-464,372	-200,000	0,027	0,093
-463,357	193,715	-0,087	-0,097
-462,343	153,366	0,083	0,084
-461,328	-131,178	-0,048	0,005
-460,313	-179,190	0,168	0,003
-459,299	-0,032	0,063	0,033
-458,284	543,340	-0,069	-0,121
-457,270	-85,952	-0,043	-0,010
-456,255	40,253	-0,064	-0,042
-455,241	800,000	0,010	-0,031
-454,226	800,000	-0,029	0,070
-453,211	-25,479	0,050	0,022
-452,197	-200,000	0,000	0,012
-451,182	0,803	-0,042	0,022
-450,168	150,850	-0,169	0,170
-449,153	-200,000	0,002	-0,040
-448,138	530,786	-0,081	-0,142
-447,124	-200,000	0,014	-0,135
-446,109	580,725	0,018	-0,032
-445,095	319,010	0,068	0,095
-444,080	0,024	0,106	0,055
-443,065	-200,000	-0,003	0,026
-442,051	723,512	-0,037	0,073
-441,036	-56,821	-0,071	0,023
-440,022	773,609	-0,019	-0,039
-439,007	59,266	-0,080	-0,058
-437,992	-56,578	0,079	0,026
-436,978	-89,169	0,061	0,013
-435,963	800,000	-0,041	0,099
-434,949	-2,384	0,067	0,035
-433,934	156,641	-0,079	0,080
-432,919	800,000	-0,006	-0,017
-431,905	-140,981	-0,049	0,004
-430,890	-200,000	-0,018	0,062
-429,876	800,000	0,041	0,110
-428,861	-200,000	-0,011	0,096
-427,846	78,536	0,097	-0,076
-426,832	-78,875	-0,087	0,022
-425,817	-83,548	0,105	0,025
-424,803	800,000	-0,056	-0,167
-423,788	30,131	0,034	0,021
-422,773	-130,282	0,107	0,011
-421,759	-200,000	-0,018	0,059
-420,744	-200,000	-0,015	-0,073
-419,730	-200,000	-0,040	-0,134
-418,715	81,956	-0,081	0,065
-417,701	-54,234	0,035	-0,012
-416,686	-92,516	-0,054	0,011
-415,671	-92,717	0,041	-0,008
-414,657	728,368	-0,069	-0,137
-413,642	281,031	-0,053	0,070
-412,628	24,957	0,135	-0,082
-411,613	47,492	0,031	-0,021
-410,598	-135,659	0,137	-0,012
-409,584	348,727	0,033	0,048
-408,569	559,000	-0,070	0,126
-407,555	-200,000	0,006	0,127
-406,540	40,007	0,079	0,052
-405,525	3,846	0,193	-0,103
-404,511	276,004	-0,078	0,102
-403,496	152,543	0,037	-0,038
-402,482	-27,971	-0,026	-0,011
-401,467	800,000	0,052	0,110
-400,452	62,067	-0,108	0,079
-399,438	-200,000	-0,025	-0,128
-398,423	-61,211	0,074	-0,023
-397,409	800,000	-0,016	-0,043
-396,394	-179,620	-0,136	0,002
-395,379	-200,000	-0,001	-0,136
-394,365	-200,000	0,018	-0,066
-393,350	-42,553	0,180	0,067
-392,336	-200,000	0,009	-0,073
-391,321	-89,194	0,110	0,024
-390,306	-135,907	0,064	-0,005
-389,292	457,429	-0,029	-0,047
-388,277	-70,619	0,090	0,025
-387,263	-23,733	-0,046	0,020
-386,248	-200,000	0,004	0,117
-385,233	33,678	-0,006	-0,004
-384,219	-107,707	-0,083	0,013
-383,204	637,257	-0,035	0,066
-382,190	-200,000	0,002	-0,108
-381,175	-200,000	-0,035	-0,149
-380,160	179,138	-0,070	-0,075
-379,146	-18,233	0,067	-0,031
-378,131	-133,337	-0,007	0,001
-377,117	351,361	-0,062	-0,091
-376,102	-200,000	-0,041	-0,139
-375,088	-119,828	0,055	0,007
-374,073	-159,516	0,055	-0,002
-373,058	800,000	0,037	0,092
-372,044	48,269	-0,067	0,046
-371,029	-200,000	-0,010	0,120
-370,015	-200,000	0,004	0,046
-369,000	468,206	-0,027	0,045
-367,985	0,573	0,035	0,018
-366,971	25,814	0,157	0,096
-365,956	-95,945	0,072	-0,014
-364,942	53,450	0,064	0,045
-363,927	166,282	-0,033	0,034
-362,912	-92,175	-0,064	-0,013
-361,898	11,653	-0,071	0,040
-360,883	-200,000	0,006	-0,060
-359,869	543,576	0,046	0,080
-358,854	800,000	0,029	-0,066
-357,839	62,718	0,035	0,026
-356,825	52,833	-0,017	-0,012
-355,810	125,654	-0,013	-0,012
-354,796	71,067	0,069	0,052
-353,781	77,358	-0,047	0,037
-352,766	264,802	0,046	-0,059
-351,752	241,338	0,043	0,053
-350,737	182,566	-0,059	0,064
-349,723	-200,000	0,025	0,099
-348,708	-200,000	-0,016	0,115
-347,693	-200,000	0,007	-0,154
-346,679	-174,252	0,072	0,002
-345,664	78,388	0,006	0,005
-344,650	-71,734	0,052	-0,014
-343,635	-25,236	-0,009	-0,004
-342,620	800,000	0,027	0,071
-341,606	800,000	-0,001	-0,002
-340,591	-200,000	0,015	-0,052
-339,577	-6,573	-0,188	0,094
-338,562	-19,699	-0,019	0,009
-337,548	-83,308	0,207	0,048
-336,533	14,928	0,080	-0,046
-335,518	-82,053	0,053	0,013
-334,504	566,523	-0,021	0,037
-333,489	-200,000	0,024	0,095
-332,475	-194,049	-0,093	-0,001
-331,460	-200,000	0,011	-0,068
-330,445	470,617	-0,022	-0,037
-329,431	800,000	0,042	0,127
-328,416	-200,000	0,032	0,305
-327,402	258,659	-0,020	-0,025
-326,387	800,000	-0,040	0,121
-325,372	296,068	0,062	0,083
-324,358	380,914	0,054	-0,082
-323,343	678,244	0,051	-0,098
-322,329	118,674	-0,059	-0,054
-321,314	263,313	-0,055	-0,070
-320,299	-124,232	0,077	-0,009
-319,285	599,919	0,017	0,030
-318,270	-165,919	0,031	0,001
-317,256	-160,357	-0,094	0,004
-316,241	99,428	-0,096	0,082
-315,226	-6,761	-0,101	0,050
-314,212	-46,003	0,132	0,047
-313,197	56,560	0,136	-0,097
-312,183	-200,000	-0,005	-0,019
-311,168	299,390	-0,056	-0,075
-310,153	-200,000	0,024	-0,232
-309,139	245,884	-0,080	-0,099
-308,124	-70,930	0,100	-0,027
-307,110	-200,000	0,008	-0,119
-306,095	-200,000	0,008	-0,038
-305,080	-200,000	-0,050	0,198
-304,066	170,254	0,030	-0,032
-303,051	-137,595	-0,060	-0,005
-302,037	-200,000	-0,009	-0,100
-301,022	-11,684	0,159	-0,076
-300,008	189,703	0,109	-0,120
-298,993	-46,830	0,067	-0,024
-297,978	494,691	-0,087	-0,147
-296,964	189,250	0,069	0,076
-295,949	201,094	-0,126	-0,142
-294,935	10,353	-0,050	0,028
-293,920	57,127	-0,052	-0,037
-292,905	194,280	0,021	-0,023
-291,891	-135,522	0,172	0,015
-290,876	-80,181	-0,176	0,043
-289,862	624,526	-0,025	-0,046
-288,847	-200,000	-0,015	0,060
-287,832	-200,000	0,016	-0,145
-286,818	265,836	-0,063	-0,080
-285,803	800,000	-0,035	-0,106
-284,789	-59,776	0,101	0,031
-283,774	-200,000	0,024	0,134
-282,759	-123,117	-0,088	-0,010
-281,745	-143,301	0,117	0,008
-280,730	800,000	-0,015	0,047
-279,716	445,730	-0,039	0,064
-278,701	111,411	0,148	-0,130
-277,686	800,000	0,018	-0,057
-276,672	12,281	0,080	0,045
-275,657	-200,000	-0,011	-0,043
-274,643	-12,766	-0,070	-0,033
-273,628	-63,056	-0,105	0,031
-272,613	63,488	0,103	-0,075
-271,599	-200,000	0,005	-0,075
-270,584	-109,901	0,089	0,013
-269,570	220,613	-0,049	0,058
-268,555	-34,936	0,053	-0,021
-267,540	-121,801	-0,063	0,008
-266,526	154,117	-0,057	-0,057
-265,511	-94,620	-0,025	0,005
-264,497	-68,881	0,061	-0,017
-263,482	-128,222	-0,040	0,004
-262,467	-200,000	0,004	-0,087
-261,453	-200,000	-0,013	0,090
-260,438	-200,000	-0,008	-0,063
-259,424	94,189	-0,161	-0,134
-258,409	-200,000	-0,007	-0,079
-257,395	22,104	-0,076	0,045
-256,380	612,643	-0,074	0,135
-255,365	-54,963	0,041	0,013
-254,351	800,000	-0,028	0,066
-253,336	-200,000	-0,009	-0,040
-252,322	800,000	-0,032	0,076
-251,307	740,046	0,037	0,074
-250,292	28,641	0,070	0,043
-249,278	-200,000	-0,059	0,244
-248,263	-200,000	0,002	-0,038
-247,249	800,000	0,019	0,059
-246,234	-23,777	-0,101	-0,044
-245,219	-171,937	-0,204	-0,005
-244,205	-86,142	-0,057	0,013
-243,190	-46,162	-0,093	-0,033
-242,176	-200,000	0,015	0,170
-241,161	150,756	0,060	0,060
-240,146	-53,274	0,033	-0,011
-239,132	-92,633	-0,132	-0,027
-238,117	-200,000	-0,042	-0,157
-237,103	800,000	0,029	-0,075
-236,088	-51,350	-0,115	0,039
-235,073	-200,000	-0,000	0,026
-234,059	72,431	0,045	-0,034
-233,044	-88,280	0,106	0,023
-232,030	438,176	-0,022	0,035
-231,015	800,000	-0,059	-0,132
-230,000	-49,535	0,068	0,023
-228,986	800,000	-0,021	-0,060
-227,971	-200,000	0,002	0,064
-226,957	-200,000	-0,023	-0,081
-225,942	244,209	0,038	0,047
-224,927	-31,055	-0,153	0,063
-223,913	800,000	0,017	-0,046
-222,898	800,000	0,026	-0,055
-221,884	-132,357	-0,049	-0,005
-220,869	-142,252	-0,023	0,002
-219,855	800,000	0,015	-0,035
-218,840	-62,617	0,150	0,045
-217,825	800,000	0,029	-0,086
-216,811	92,525	-0,039	0,032
-215,796	47,554	-0,073	0,050
-214,782	-174,314	0,136	-0,003
-213,767	-99,560	0,063	-0,011
-212,752	-200,000	-0,018	0,091
-211,738	-161,279	0,098	0,004
-210,723	411,625	-0,104	0,162
-209,709	70,824	0,033	-0,025
-208,694	262,498	-0,071	-0,090
-207,679	-176,717	-0,123	0,002
-206,665	246,415	-0,091	0,112
-205,650	33,492	0,137	-0,087
-204,636	-200,000	0,004	-0,037
-203,621	65,533	-0,033	-0,025
-202,606	-200,000	0,015	-0,133
-201,592	7,290	-0,109	-0,059
-200,577	-56,469	-0,050	0,016
-199,563	-125,153	0,040	0,004
-198,548	800,000	0,033	0,088
-197,533	-188,003	-0,078	0,001
-196,519	-96,506	0,141	0,027
-195,504	406,227	-0,059	-0,092
-194,490	-22,442	-0,124	-0,054
-193,475	800,000	-0,064	-0,155
-192,460	744,103	0,083	0,164
-191,446	41,511	0,102	-0,067
-190,431	-52,250	0,075	-0,025
-189,417	236,917	0,123	0,149
-188,402	-200,000	0,017	0,147
-187,387	800,000	0,013	0,040
-186,373	35,609	0,024	-0,015
-185,358	-200,000	0,007	-0,065
-184,344	78,377	0,105	-0,082
-183,329	524,076	-0,020	-0,034
-182,315	247,963	0,037	-0,045
-181,300	180,887	-0,047	0,051
-180,285	39,220	-0,145	-0,094
-179,271	-21,029	0,080	0,035
-178,256	406,261	-0,083	0,129
-177,242	-142,895	-0,092	-0,006
-176,227	310,320	-0,032	0,044
-175,212	744,026	0,046	0,090
-174,198	137,186	-0,041	-0,040
-173,183	665,593	-0,024	0,046
-172,169	96,134	-0,086	0,072
-171,154	-15,030	0,051	0,024
-170,139	46,457	-0,032	-0,022
-169,125	370,410	0,062	0,091
-168,110	280,674	0,036	-0,047
-167,096	113,990	-0,024	0,021
-166,081	-79,018	-0,101	0,025
-165,066	-132,079	-0,092	0,009
-164,052	-54,677	-0,072	-0,024
-163,037	159,647	0,054	0,054
-162,023	-127,121	0,122	0,013
-161,008	232,135	0,071	-0,084
-159,993	-65,680	-0,091	0,026
-158,979	157,007	0,111	-0,112
-157,964	800,000	-0,031	0,069
-156,950	-200,000	0,015	-0,050
-155,935	-177,016	-0,048	0,001
-154,920	336,445	-0,028	-0,040
-153,906	-200,000	-0,014	0,107
-152,891	-118,798	0,037	-0,005
-151,877	-103,812	-0,095	0,016
-150,862	-63,282	-0,128	-0,038
-149,847	-200,000	-0,005	-0,039
-148,833	66,105	0,089	0,066
-147,818	33,733	0,074	-0,047
-146,804	-200,000	-0,021	0,093
-145,789	123,215	0,037	0,034
-144,775	-14,520	0,036	-0,017
-143,760	680,610	0,022	-0,042
-142,745	37,196	-0,142	-0,092
-141,731	-200,000	-0,011	0,078
-140,716	-47,558	0,053	-0,019
-139,702	-200,000	0,019	0,091
-138,687	-136,770	0,143	0,012
-137,672	800,000	-0,017	-0,045
-136,658	-200,000	-0,017	-0,065
-135,643	124,955	0,126	0,115
-134,629	-135,651	0,116	0,010
-133,614	136,808	0,025	-0,023
-132,599	-117,418	0,213	-0,028
-131,585	800,000	-0,059	0,127
-130,570	5,175	0,168	-0,090
-129,556	326,271	-0,095	-0,133
-128,541	173,489	-0,082	0,086
-127,526	800,000	0,063	0,194
-126,512	800,000	0,082	0,165
-125,497	-200,000	-0,000	0,074
-124,483	186,140	-0,062	0,067
-123,468	191,015	-0,072	-0,079
-122,453	558,340	-0,044	-0,077
-121,439	-16,605	0,040	-0,018
-120,424	477,700	-0,055	-0,091
-119,410	-200,000	-0,011	0,062
