DTS Sentinel unit serial number:	SN410029Multiplexer serial number:	ORYXHardware model number:	OX2-SRSoftware version number:	ORYX F/W v4,00 Oryx Data Collector v3.7.2.0data status	okinstallation	B6 Nyhavnadifferential loss correction	single-endedforward channel	channel 2reverse channel	N/Adate	2023/12/11time	06:25:08forward acquisition time	300,00reverse acquisition time	0,00gamma	499,1914k internal	0,3126k external	0,3126temperature offset calibration	1,0000default loss term (dB/km)	0,3820temperature slope calibration	1,0000multiplexer offset coefficient	1,0000multiplexer slope coefficient	1,0000fibre end	0,00T internal ref (°C)	19,57T ext. ref 1 (°C)	2,67T ext. ref 2 (°C)	2,67length (m)	temperature (°C)	Stokes	anti-Stokes-744,400	-200,000	-0,023	-0,084
-743,385	-108,116	-0,274	0,044
-742,371	410,933	0,046	-0,074
-741,356	140,808	-0,156	0,154
-740,342	-97,655	0,154	-0,029
-739,327	-21,689	-0,386	0,174
-738,312	-200,000	-0,003	0,098
-737,298	-38,706	-0,293	0,115
-736,283	-96,421	0,103	0,020
-735,269	-53,732	-0,181	0,061
-734,254	51,523	-0,015	0,010
-733,239	-135,896	-0,498	-0,043
-732,225	-15,037	0,125	0,059
-731,210	-200,000	-0,015	0,133
-730,196	-43,608	0,102	-0,038
-729,181	-130,941	0,070	-0,007
-728,167	-27,708	0,064	0,027
-727,152	800,000	0,044	0,125
-726,137	42,369	-0,153	0,103
-725,123	-41,667	-0,041	0,015
-724,108	-53,066	0,096	-0,033
-723,094	-5,134	-0,141	-0,072
-722,079	121,801	-0,037	0,034
-721,064	-200,000	-0,018	-0,112
-720,050	247,415	-0,031	-0,039
-719,035	386,829	-0,071	-0,110
-718,021	483,834	0,058	-0,098
-717,006	-76,241	-0,075	0,019
-715,991	-200,000	0,028	-0,111
-714,977	800,000	0,066	-0,158
-713,962	800,000	0,044	-0,113
-712,948	-200,000	0,012	-0,121
-711,933	363,934	0,045	-0,067
-710,918	-103,081	0,093	-0,016
-709,904	591,443	-0,044	0,082
-708,889	90,470	-0,067	-0,056
-707,875	-34,351	-0,170	-0,069
-706,860	65,787	-0,018	-0,013
-705,845	79,728	-0,020	-0,016
-704,831	-200,000	-0,025	0,194
-703,816	-200,000	-0,036	-0,123
-702,802	-200,000	0,015	-0,064
-701,787	-98,874	-0,150	-0,028
-700,772	-116,887	-0,040	-0,005
-699,758	-11,142	0,054	-0,027
-698,743	-20,337	0,053	0,024
-697,729	-200,000	-0,028	0,184
-696,714	141,478	0,051	0,050
-695,699	274,364	-0,018	-0,024
-694,685	-110,466	-0,164	-0,025
-693,670	81,109	-0,077	0,062
-692,656	-200,000	0,016	0,089
-691,641	-200,000	-0,005	-0,198
-690,627	-200,000	0,007	0,027
-689,612	314,496	0,060	-0,084
-688,597	-80,006	0,034	0,008
-687,583	722,218	-0,034	-0,067
-686,568	800,000	-0,045	0,099
-685,554	-3,612	0,016	0,008
-684,539	-126,130	0,030	-0,003
-683,524	-49,058	-0,025	0,009
-682,510	-200,000	0,004	0,025
-681,495	-40,518	0,100	-0,038
-680,481	112,652	0,033	0,030
-679,466	76,449	0,016	-0,012
-678,451	131,941	-0,133	-0,128
-677,437	404,362	0,068	-0,107
-676,422	793,976	-0,064	-0,131
-675,408	-29,932	0,026	0,011
-674,393	425,168	-0,065	-0,105
-673,378	-101,711	-0,157	-0,028
-672,364	-78,923	-0,152	-0,038
-671,349	65,386	0,088	-0,066
-670,335	232,224	0,042	-0,051
-669,320	43,972	-0,115	-0,078
-668,305	-200,000	0,014	-0,148
-667,291	766,840	-0,032	0,065
-666,276	-14,889	0,095	-0,045
-665,262	-200,000	-0,001	-0,082
-664,247	-90,833	0,074	0,016
-663,232	-87,109	-0,032	0,007
-662,218	580,976	0,035	0,064
-661,203	-200,000	-0,012	-0,061
-660,189	-200,000	-0,009	0,102
-659,174	-11,598	-0,152	0,074
-658,159	737,724	-0,047	-0,094
-657,145	-200,000	0,001	-0,087
-656,130	800,000	-0,029	-0,067
-655,116	800,000	0,052	-0,139
-654,101	-200,000	-0,002	0,073
-653,086	-1,800	-0,075	-0,039
-652,072	462,365	-0,037	-0,062
-651,057	-200,000	-0,002	-0,066
-650,043	-200,000	0,011	-0,052
-649,028	-126,494	0,102	-0,011
-648,014	135,832	-0,025	-0,024
-646,999	185,614	-0,010	0,011
-645,984	195,120	-0,063	-0,072
-644,970	800,000	-0,020	-0,055
-643,955	-82,599	0,057	0,014
-642,941	118,621	-0,088	-0,080
-641,926	-200,000	-0,015	-0,057
-640,911	-200,000	0,006	0,024
-639,897	-200,000	-0,015	0,114
-638,882	-87,103	-0,080	-0,018
-637,868	-200,000	0,028	0,125
-636,853	-13,351	0,044	-0,021
-635,838	-200,000	-0,029	-0,121
-634,824	459,531	-0,120	0,198
-633,809	-59,151	0,135	0,043
-632,795	91,169	-0,122	0,102
-631,780	-200,000	0,011	0,101
-630,765	-200,000	0,007	-0,051
-629,751	242,955	-0,059	0,073
-628,736	156,619	-0,070	-0,071
-627,722	-66,596	-0,062	0,018
-626,707	-200,000	-0,002	0,070
-625,692	442,157	0,033	0,054
-624,678	-0,853	-0,027	-0,014
-623,663	-161,552	-0,112	0,004
-622,649	-200,000	0,008	-0,039
-621,634	-9,148	-0,052	0,026
-620,619	-164,741	0,052	-0,002
-619,605	800,000	0,060	0,150
-618,590	377,594	0,011	-0,017
-617,576	107,979	0,057	-0,050
-616,561	67,193	-0,048	0,036
-615,546	-200,000	-0,015	-0,068
-614,532	-200,000	-0,002	-0,132
-613,517	-162,338	0,262	0,009
-612,503	484,533	-0,018	-0,030
-611,488	800,000	0,006	0,015
-610,474	103,054	0,087	0,076
-609,459	449,786	-0,067	0,109
-608,444	497,610	-0,081	-0,138
-607,430	800,000	-0,042	0,093
-606,415	12,178	0,085	0,048
-605,401	76,350	-0,075	-0,059
-604,386	-87,352	-0,043	0,010
-603,371	-65,529	0,217	0,064
-602,357	-136,716	-0,025	0,002
-601,342	800,000	0,025	-0,068
-600,328	-64,051	-0,202	-0,061
-599,313	-200,000	-0,011	-0,152
-598,298	-200,000	0,021	-0,120
-597,284	786,783	-0,031	-0,064
-596,269	-50,569	0,086	0,030
-595,255	505,715	-0,034	0,059
-594,240	-200,000	-0,008	0,125
-593,225	-200,000	-0,002	-0,023
-592,211	182,746	0,072	-0,079
-591,196	800,000	0,024	0,061
-590,182	-200,000	0,005	-0,017
-589,167	800,000	-0,012	0,031
-588,152	47,527	-0,073	-0,050
-587,138	-29,920	0,135	-0,057
-586,123	-200,000	-0,005	-0,064
-585,109	-200,000	-0,025	-0,096
-584,094	43,194	-0,192	-0,130
-583,079	-87,166	0,111	-0,025
-582,065	255,612	-0,109	-0,139
-581,050	-177,017	0,091	-0,002
-580,036	-200,000	0,008	0,080
-579,021	101,648	-0,092	-0,079
-578,006	48,876	-0,088	-0,061
-576,992	-200,000	0,017	0,061
-575,977	153,512	-0,045	-0,046
-574,963	-7,043	-0,057	-0,029
-573,948	456,298	0,049	0,080
-572,934	181,157	0,055	-0,060
-571,919	-200,000	-0,028	-0,105
-570,904	-143,780	0,029	0,002
-569,890	800,000	-0,028	0,063
-568,875	800,000	-0,023	0,073
-567,861	-133,307	-0,074	-0,007
-566,846	800,000	0,061	0,148
-565,831	-200,000	-0,009	-0,065
-564,817	800,000	0,027	-0,057
-563,802	470,523	-0,026	0,043
-562,788	-39,605	-0,059	-0,023
-561,773	-50,434	0,003	-0,001
-560,758	-27,315	0,039	-0,017
-559,744	-46,006	0,086	0,031
-558,729	-200,000	0,004	-0,093
-557,715	-93,014	-0,024	-0,005
-556,700	100,765	-0,079	-0,068
-555,685	312,032	-0,070	-0,097
-554,671	-16,449	0,038	0,018
-553,656	-200,000	-0,001	0,091
-552,642	-133,961	0,193	-0,017
-551,627	-169,460	-0,113	-0,003
-550,612	-9,111	-0,130	-0,064
-549,598	-119,253	-0,074	-0,009
-548,583	-53,663	-0,044	0,015
-547,569	-200,000	-0,051	-0,174
-546,554	58,540	-0,062	0,045
-545,539	-4,885	0,139	-0,070
-544,525	289,597	0,054	0,073
-543,510	-200,000	0,005	-0,018
-542,496	75,440	-0,122	0,095
-541,481	211,108	0,055	0,064
-540,466	249,306	0,070	-0,087
-539,452	435,027	0,062	0,100
-538,437	800,000	0,036	-0,087
-537,423	88,542	-0,100	0,082
-536,408	-200,000	0,008	-0,127
-535,393	267,358	-0,036	-0,047
-534,379	132,537	-0,096	-0,091
-533,364	-108,605	0,183	-0,029
-532,350	295,001	-0,024	-0,033
-531,335	-127,129	0,125	0,013
-530,321	427,790	0,068	-0,108
-529,306	-200,000	-0,004	0,018
-528,291	-151,030	-0,113	-0,006
-527,277	89,718	0,026	0,022
-526,262	-43,716	-0,092	0,034
-525,248	387,209	0,053	-0,081
-524,233	800,000	-0,008	-0,018
-523,218	24,801	0,090	-0,055
-522,204	-200,000	0,008	-0,061
-521,189	-130,740	-0,150	0,015
-520,175	52,947	0,047	0,033
-519,160	69,386	-0,041	0,031
-518,145	-117,715	-0,033	-0,004
-517,131	-103,955	0,090	-0,015
-516,116	-200,000	-0,014	0,091
-515,102	541,020	-0,063	-0,112
-514,087	120,896	0,051	-0,047
-513,072	65,391	-0,142	-0,106
-512,058	476,008	0,046	-0,078
-511,043	800,000	0,021	0,049
-510,029	-20,188	0,121	0,055
-509,014	258,951	-0,104	0,133
-507,999	324,561	-0,053	-0,075
-506,985	-96,589	0,149	0,029
-505,970	753,961	0,058	0,115
-504,956	800,000	-0,081	-0,215
-503,941	-200,000	-0,019	-0,120
-502,926	252,702	-0,154	0,194
-501,912	-32,387	0,036	-0,015
-500,897	-100,838	0,086	0,015
-499,883	109,830	-0,090	-0,079
-498,868	514,400	-0,019	-0,032
-497,853	104,069	0,037	0,032
-496,839	155,093	0,133	-0,135
-495,824	800,000	0,049	0,104
-494,810	461,656	-0,053	0,088
-493,795	58,814	-0,138	-0,100
-492,781	800,000	0,011	-0,029
-491,766	800,000	0,041	-0,099
-490,751	-200,000	-0,014	0,099
-489,737	-34,514	0,074	0,030
-488,722	222,661	0,058	0,069
-487,708	510,682	-0,088	0,152
-486,693	-102,588	0,139	0,024
-485,678	-159,622	0,037	0,001
-484,664	229,997	0,062	0,074
-483,649	-200,000	-0,001	-0,018
-482,635	-200,000	-0,006	0,061
-481,620	-200,000	-0,015	0,079
-480,605	43,589	0,043	0,029
-479,591	439,091	0,047	-0,076
-478,576	-200,000	0,016	-0,098
-477,562	-57,781	-0,028	-0,009
-476,547	67,902	-0,104	-0,078
-475,532	30,292	0,080	-0,050
-474,518	-182,815	0,081	-0,001
-473,503	-21,053	0,091	0,041
-472,489	753,118	0,016	0,032
-471,474	800,000	-0,048	-0,151
-470,459	-200,000	0,014	-0,056
-469,445	135,274	0,006	-0,006
-468,430	70,030	0,021	-0,016
-467,416	-99,055	-0,115	-0,021
-466,401	-97,514	0,213	-0,040
-465,386	-200,000	0,015	0,091
-464,372	-72,657	-0,054	0,014
-463,357	-200,000	0,015	-0,065
-462,343	226,963	0,126	-0,151
-461,328	148,691	-0,022	-0,022
-460,313	45,001	0,065	-0,044
-459,299	-200,000	-0,006	0,086
-458,284	-97,469	0,163	0,031
-457,270	125,271	-0,031	0,029
-456,255	9,094	-0,059	0,033
-455,241	-26,721	-0,163	-0,070
-454,226	800,000	-0,049	-0,103
-453,211	-200,000	0,010	-0,069
-452,197	509,535	-0,023	-0,039
-451,182	-12,465	-0,120	-0,057
-450,168	-35,458	0,030	0,012
-449,153	-127,841	-0,101	-0,011
-448,138	-200,000	0,009	-0,076
-447,124	-163,595	-0,144	0,005
-446,109	576,193	0,032	0,057
-445,095	-37,302	0,061	0,024
-444,080	-121,835	0,087	-0,010
-443,065	-200,000	-0,045	0,147
-442,051	-107,947	-0,050	0,008
-441,036	80,581	0,027	-0,022
-440,022	298,157	-0,023	0,031
-439,007	-200,000	-0,016	0,078
-437,992	-128,080	-0,021	0,002
-436,978	530,261	0,036	0,064
-435,963	-200,000	-0,005	0,019
-434,949	45,559	0,069	0,047
-433,934	-200,000	0,015	0,077
-432,919	-15,696	-0,011	-0,005
-431,905	76,144	0,140	0,109
-430,890	-100,206	-0,129	-0,023
-429,876	412,533	0,032	0,050
-428,861	455,715	0,011	0,019
-427,846	800,000	-0,044	-0,095
-426,832	800,000	0,008	-0,026
-425,817	-77,593	-0,065	-0,016
-424,803	-200,000	0,004	-0,053
-423,788	-200,000	0,004	-0,046
-422,773	434,020	0,026	0,042
-421,759	104,300	0,060	0,052
-420,744	-59,077	-0,124	0,039
-419,730	-161,753	-0,049	-0,002
-418,715	389,216	-0,043	-0,065
-417,701	-31,177	-0,091	-0,038
-416,686	211,532	0,030	0,035
-415,671	-92,547	0,123	0,025
-414,657	255,845	-0,042	0,053
-413,642	-200,000	-0,005	0,084
-412,628	-78,402	-0,132	0,033
-411,613	-23,659	-0,123	0,054
-410,598	186,566	0,110	0,121
-409,584	-200,000	0,014	-0,056
-408,569	-94,369	0,166	0,033
-407,555	-200,000	0,005	0,157
-406,540	-200,000	0,021	-0,078
-405,525	-116,145	-0,069	-0,009
-404,511	-53,351	-0,163	-0,054
-403,496	329,033	0,015	0,022
-402,482	351,266	-0,060	-0,087
-401,467	-200,000	0,005	-0,023
-400,452	110,113	0,048	-0,042
-399,438	-96,514	0,107	-0,020
-398,423	-200,000	-0,035	-0,126
-397,409	316,559	0,083	-0,115
-396,394	64,591	0,062	-0,046
-395,379	800,000	0,015	0,045
-394,365	5,673	0,042	0,023
-393,350	-27,056	-0,013	-0,005
-392,336	110,558	0,034	0,030
-391,321	9,714	-0,141	-0,078
-390,306	-133,827	0,052	-0,005
-389,292	486,416	0,017	-0,028
-388,277	-200,000	0,028	-0,129
-387,263	-106,192	-0,033	-0,005
-386,248	-61,378	0,143	0,044
-385,233	-165,733	0,065	-0,002
-384,219	-46,380	-0,049	0,018
-383,204	-200,000	0,013	-0,077
-382,190	-1,635	0,126	0,065
-381,175	270,879	0,015	0,019
-380,160	202,108	-0,067	0,076
-379,146	145,943	0,064	0,063
-378,131	-81,779	0,163	0,039
-377,117	69,857	-0,049	0,037
-376,102	75,007	-0,038	0,030
-375,088	800,000	-0,046	-0,135
-374,073	800,000	-0,018	0,045
-373,058	-200,000	-0,026	0,108
-372,044	-58,489	0,221	0,070
-371,029	-37,261	0,101	0,040
-370,015	-200,000	-0,008	0,085
-369,000	318,249	-0,069	0,096
-367,985	594,863	-0,054	0,099
-366,971	120,258	-0,108	-0,098
-365,956	-200,000	0,032	-0,217
-364,942	195,564	0,123	-0,137
-363,927	29,058	0,029	-0,018
-362,912	-200,000	0,007	-0,066
-361,898	268,336	0,012	0,015
-360,883	-200,000	0,015	0,183
-359,869	-200,000	-0,069	-0,274
-358,854	217,688	0,032	-0,037
-357,839	-200,000	0,002	0,062
-356,825	1,406	0,056	0,029
-355,810	104,998	0,040	-0,034
-354,796	-200,000	-0,004	0,025
-353,781	62,832	-0,013	-0,009
-352,766	-20,805	0,073	0,033
-351,752	-200,000	0,000	0,036
-350,737	-84,095	0,101	0,023
-349,723	-200,000	-0,044	0,175
-348,708	-5,102	-0,070	0,035
-347,693	230,885	0,079	0,095
-346,679	-200,000	-0,016	-0,055
-345,664	-33,395	-0,108	0,044
-344,650	800,000	0,019	0,052
-343,635	-200,000	0,007	0,108
-342,620	219,610	0,101	0,119
-341,606	-200,000	-0,004	0,037
-340,591	-137,047	-0,082	-0,007
-339,577	800,000	0,014	-0,037
-338,562	-34,520	-0,102	-0,041
-337,548	-200,000	0,024	-0,099
-336,533	-15,668	0,007	-0,003
-335,518	-200,000	0,003	-0,078
-334,504	-200,000	-0,017	0,102
-333,489	620,526	0,013	0,024
-332,475	-200,000	-0,023	0,080
-331,460	267,032	-0,049	-0,064
-330,445	800,000	0,015	0,043
-329,431	53,703	0,015	-0,011
-328,416	-123,483	-0,019	-0,002
-327,402	546,493	-0,044	0,078
-326,387	-44,826	-0,097	-0,035
-325,372	-200,000	0,009	-0,108
-324,358	-200,000	0,031	-0,110
-323,343	-200,000	0,017	-0,137
-322,329	172,013	-0,063	0,066
-321,314	114,120	0,116	0,104
-320,299	-200,000	-0,004	-0,061
-319,285	-124,377	-0,040	0,004
-318,270	28,461	-0,011	-0,007
-317,256	261,932	0,051	-0,065
-316,241	32,640	-0,095	-0,060
-315,226	57,489	0,038	0,027
-314,212	19,531	0,063	0,037
-313,197	-200,000	-0,007	0,077
-312,183	-143,913	0,038	-0,003
-311,168	-96,631	-0,134	0,026
-310,153	633,280	0,047	-0,088
-309,139	-200,000	-0,017	-0,132
-308,124	-200,000	-0,018	0,100
-307,110	-200,000	-0,025	0,089
-306,095	195,949	0,045	-0,050
-305,080	-200,000	0,012	0,107
-304,066	800,000	0,024	-0,066
-303,051	-200,000	0,004	-0,068
-302,037	411,783	-0,033	-0,051
-301,022	-18,476	0,114	0,052
-300,008	128,301	0,012	0,012
-298,993	-143,272	-0,059	0,004
-297,978	569,552	0,105	0,188
-296,964	-200,000	0,019	0,098
-295,949	507,304	0,019	0,033
-294,935	800,000	0,022	-0,044
-293,920	29,449	0,194	0,121
-292,905	-200,000	0,010	0,056
-291,891	15,818	0,133	0,076
-290,876	800,000	-0,018	0,054
-289,862	10,082	-0,091	-0,050
-288,847	604,944	0,029	0,053
-287,832	14,686	0,080	0,046
-286,818	-84,616	-0,012	-0,003
-285,803	800,000	0,023	-0,056
-284,789	253,994	-0,027	0,034
-283,774	-103,934	0,062	-0,011
-282,759	-8,310	0,070	0,034
-281,745	4,931	-0,151	0,081
-280,730	-200,000	0,032	-0,176
-279,716	74,876	-0,109	0,084
-278,701	-63,840	0,151	0,045
-277,686	128,364	0,169	-0,157
-276,672	-40,491	-0,100	-0,038
-275,657	19,745	-0,144	-0,085
-274,643	-200,000	0,019	-0,104
-273,628	712,641	-0,045	0,087
-272,613	-200,000	0,017	-0,081
-271,599	-74,089	-0,076	0,020
-270,584	-167,408	0,141	0,004
-269,570	-200,000	0,003	-0,017
-268,555	-4,385	-0,050	-0,025
-267,540	91,681	-0,062	0,051
-266,526	-200,000	0,015	-0,091
-265,511	-200,000	-0,051	0,174
-264,497	-162,445	0,026	0,001
-263,482	-57,523	0,106	-0,034
-262,467	-200,000	0,001	0,063
-261,453	-77,105	-0,075	-0,019
-260,438	369,711	-0,038	0,057
-259,424	311,594	0,033	-0,045
-258,409	-200,000	-0,008	-0,117
-257,395	-30,057	-0,012	-0,005
-256,380	-200,000	0,011	0,125
-255,365	188,377	0,103	0,112
-254,351	-60,948	0,143	0,044
-253,336	800,000	-0,033	0,103
-252,322	35,656	-0,069	-0,044
-251,307	167,887	0,023	-0,024
-250,292	-98,582	-0,069	0,013
-249,278	-111,320	-0,033	-0,005
-248,263	450,320	-0,030	-0,048
-247,249	800,000	0,029	0,084
-246,234	-23,783	0,116	0,051
-245,219	125,502	0,054	-0,050
-244,205	358,824	0,026	-0,039
-243,190	201,548	-0,082	0,093
-242,176	175,704	-0,038	-0,040
-241,161	-200,000	-0,009	-0,158
-240,146	800,000	0,023	0,052
-239,132	-28,359	0,086	-0,036
-238,117	-66,809	-0,094	-0,027
-237,103	187,775	-0,121	-0,133
-236,088	-144,195	-0,054	0,004
-235,073	170,173	0,048	0,050
-234,059	-70,497	0,117	0,032
-233,044	-78,159	-0,055	0,014
-232,030	-15,086	-0,074	0,034
-231,015	-200,000	-0,003	-0,065
-230,000	-147,847	0,068	0,004
-228,986	463,314	0,064	-0,105
-227,971	-200,000	0,019	0,079
-226,957	-200,000	-0,003	-0,074
-225,942	630,660	0,040	0,074
-224,927	-50,387	0,169	-0,058
-223,913	-145,471	-0,205	0,013
-222,898	299,859	-0,040	0,053
-221,884	21,993	-0,035	0,021
-220,869	-144,856	0,128	-0,008
-219,855	423,480	0,034	0,054
-218,840	-200,000	0,004	0,093
-217,825	32,659	-0,068	0,043
-216,811	-122,808	-0,112	0,013
-215,796	800,000	-0,026	-0,063
-214,782	800,000	0,071	-0,183
-213,767	45,900	0,115	-0,077
-212,752	-200,000	-0,009	0,114
-211,738	-137,217	0,132	-0,011
-210,723	-200,000	0,007	0,043
-209,709	15,970	-0,129	-0,074
-208,694	283,639	0,114	-0,150
-207,679	-200,000	-0,017	-0,165
-206,665	-53,940	-0,148	-0,049
-205,650	-11,865	-0,098	0,047
-204,636	-7,198	-0,063	-0,031
-203,621	197,942	-0,027	0,030
-202,606	90,674	0,133	0,109
-201,592	800,000	0,055	-0,137
-200,577	56,980	-0,147	0,104
-199,563	569,521	-0,071	0,126
-198,548	-74,606	0,155	0,040
-197,533	-36,373	-0,128	0,050
-196,519	378,737	0,028	0,042
-195,504	-29,410	0,042	0,018
-194,490	-200,000	-0,026	-0,096
-193,475	354,716	0,061	-0,088
-192,460	-37,239	-0,100	0,039
-191,446	800,000	0,041	0,110
-190,431	2,512	0,086	0,045
-189,417	133,635	-0,068	-0,064
-188,402	-158,163	0,073	0,003
-187,387	58,844	-0,104	0,074
-186,373	85,979	-0,063	0,051
-185,358	-200,000	-0,030	0,129
-184,344	-14,011	-0,071	-0,033
-183,329	-200,000	-0,038	-0,127
-182,315	231,618	-0,018	0,021
-181,300	-100,615	-0,033	0,006
-180,285	53,309	-0,037	-0,026
-179,271	-200,000	0,003	-0,020
-178,256	-200,000	0,028	0,132
-177,242	-105,560	-0,123	-0,020
-176,227	-200,000	0,029	-0,132
-175,212	161,058	0,074	0,076
-174,198	-174,958	-0,085	-0,002
-173,183	-153,392	-0,127	-0,006
-172,169	-19,799	-0,104	-0,047
-171,154	-200,000	-0,004	0,055
-170,139	625,697	-0,064	0,119
-169,125	-3,496	0,119	-0,060
-168,110	-200,000	0,013	0,053
-167,096	-55,836	-0,083	0,027
-166,081	73,884	-0,112	-0,085
-165,066	-200,000	-0,002	0,047
-164,052	-200,000	0,026	-0,134
-163,037	-200,000	0,001	0,052
-162,023	195,012	-0,094	0,104
-161,008	-107,385	0,074	-0,012
-159,993	800,000	0,072	0,190
-158,979	71,239	-0,108	-0,081
-157,964	523,838	0,042	0,072
-156,950	20,196	0,103	-0,061
-155,935	429,283	0,045	0,072
-154,920	-200,000	-0,031	0,168
-153,906	-13,829	-0,027	-0,012
-152,891	-35,911	-0,053	0,021
-151,877	-105,566	0,142	-0,023
-150,862	232,029	0,045	-0,054
-149,847	800,000	-0,011	0,030
-148,833	-45,230	-0,095	0,034
-147,818	2,248	0,132	0,069
-146,804	55,527	0,037	-0,026
-145,789	-123,105	0,070	0,008
-144,775	800,000	-0,030	0,090
-143,760	-13,721	-0,079	-0,037
-142,745	-125,855	-0,145	0,016
-141,731	-200,000	-0,010	-0,065
-140,716	-84,144	0,013	0,003
-139,702	-135,016	0,110	0,010
-138,687	0,359	-0,102	0,053
-137,672	48,986	-0,007	0,005
-136,658	-43,882	-0,020	0,007
-135,643	77,759	-0,038	-0,030
-134,629	115,761	-0,071	-0,063
-133,614	-43,020	0,120	0,044
-132,599	800,000	-0,028	0,064
-131,585	516,629	-0,061	-0,104
-130,570	-200,000	0,008	-0,064
-129,556	228,986	-0,051	-0,061
-128,541	65,701	-0,098	-0,072
-127,526	485,863	-0,068	-0,113
-126,512	482,216	-0,023	0,038
-125,497	62,905	0,079	-0,058
-124,483	-200,000	-0,038	0,220
-123,468	-127,097	0,158	-0,017
-122,453	-85,124	-0,087	-0,020
-121,439	72,679	-0,141	-0,107
-120,424	800,000	-0,036	0,099
