DTS Sentinel unit serial number:	SN410029Multiplexer serial number:	ORYXHardware model number:	OX2-SRSoftware version number:	ORYX F/W v4,00 Oryx Data Collector v3.7.2.0data status	okinstallation	B6 Nyhavnadifferential loss correction	single-endedforward channel	channel 2reverse channel	N/Adate	2023/12/08time	03:45:08forward acquisition time	300,00reverse acquisition time	0,00gamma	499,1914k internal	0,3165k external	0,3165temperature offset calibration	1,0000default loss term (dB/km)	0,3820temperature slope calibration	1,0000multiplexer offset coefficient	1,0000multiplexer slope coefficient	1,0000fibre end	0,00T internal ref (°C)	13,10T ext. ref 1 (°C)	-3,78T ext. ref 2 (°C)	-3,79length (m)	temperature (°C)	Stokes	anti-Stokes-744,400	-160,473	0,102	0,004
-743,385	-120,837	-0,362	0,044
-742,371	197,792	0,057	0,064
-741,356	-137,720	-0,407	0,033
-740,342	154,639	0,100	0,101
-739,327	-121,577	-0,239	-0,029
-738,312	12,027	0,085	-0,048
-737,298	-117,985	-0,239	-0,031
-736,283	-128,202	0,276	-0,029
-735,269	-128,370	-0,275	0,028
-734,254	-81,613	0,069	0,016
-733,239	-69,852	-0,298	-0,083
-732,225	-102,362	0,245	0,043
-731,210	29,559	-0,025	0,015
-730,196	-200,000	-0,024	0,193
-729,181	-134,179	-0,213	-0,019
-728,167	-182,717	-0,037	0,000
-727,152	351,821	-0,095	-0,138
-726,137	-18,591	-0,052	-0,024
-725,123	38,118	-0,084	-0,055
-724,108	-68,370	-0,069	0,019
-723,094	-200,000	0,017	0,136
-722,079	-200,000	0,019	-0,152
-721,064	800,000	0,059	-0,157
-720,050	121,768	-0,055	-0,050
-719,035	-20,567	-0,071	0,032
-718,021	-106,328	-0,031	0,005
-717,006	-89,173	-0,135	-0,029
-715,991	-200,000	-0,017	-0,130
-714,977	-200,000	-0,007	0,042
-713,962	264,392	-0,035	-0,045
-712,948	153,046	-0,028	0,028
-711,933	-70,960	0,042	0,012
-710,918	184,086	-0,048	-0,052
-709,904	-200,000	-0,004	-0,069
-708,889	-110,343	0,083	-0,013
-707,875	-111,832	-0,121	0,018
-706,860	-200,000	-0,014	-0,105
-705,845	-200,000	0,011	-0,126
-704,831	-200,000	0,010	0,086
-703,816	-49,882	0,141	-0,049
-702,802	55,156	-0,107	-0,076
-701,787	-74,508	0,044	0,012
-700,772	-20,378	-0,077	-0,035
-699,758	-200,000	-0,019	0,101
-698,743	-84,889	0,058	-0,013
-697,729	-106,095	-0,041	0,007
-696,714	-109,544	0,149	-0,023
-695,699	-200,000	0,015	-0,082
-694,685	15,748	-0,099	-0,057
-693,670	800,000	0,024	0,061
-692,656	-200,000	-0,012	-0,105
-691,641	-88,693	-0,110	0,024
-690,627	581,548	-0,029	-0,052
-689,612	-200,000	-0,025	0,147
-688,597	-8,291	-0,093	0,046
-687,583	-83,632	-0,185	-0,043
-686,568	-95,634	-0,068	-0,013
-685,554	-188,225	-0,077	0,001
-684,539	-200,000	0,004	0,042
-683,524	726,760	-0,035	-0,069
-682,510	-200,000	-0,020	-0,108
-681,495	151,135	-0,120	-0,120
-680,481	800,000	-0,061	-0,142
-679,466	332,084	-0,063	-0,089
-678,451	-15,768	-0,066	-0,031
-677,437	-200,000	0,027	0,114
-676,422	587,826	-0,055	0,100
-675,408	-54,097	0,085	0,028
-674,393	146,734	0,019	-0,019
-673,378	110,979	0,088	-0,077
-672,364	70,365	-0,045	-0,034
-671,349	562,008	-0,057	-0,102
-670,335	-200,000	0,023	-0,086
-669,320	-44,198	-0,051	0,019
-668,305	296,640	-0,076	0,102
-667,291	-200,000	-0,003	-0,076
-666,276	12,825	0,011	0,006
-665,262	-200,000	-0,033	-0,129
-664,247	-79,382	-0,040	0,010
-663,232	50,184	-0,029	0,020
-662,218	45,032	-0,061	0,041
-661,203	226,253	-0,019	0,022
-660,189	87,213	0,035	0,028
-659,174	-200,000	-0,016	0,121
-658,159	-18,266	-0,029	0,013
-657,145	-36,507	-0,014	-0,005
-656,130	-200,000	-0,012	0,049
-655,116	-200,000	-0,023	-0,109
-654,101	420,722	0,034	0,053
-653,086	357,324	-0,051	0,075
-652,072	-200,000	0,026	-0,091
-651,057	-21,233	-0,066	-0,029
-650,043	800,000	-0,005	-0,011
-649,028	-200,000	-0,003	-0,068
-648,014	-200,000	0,005	-0,062
-646,999	627,252	0,009	-0,017
-645,984	29,939	-0,151	-0,094
-644,970	-155,891	-0,169	-0,008
-643,955	20,397	-0,060	-0,035
-642,941	-107,010	-0,039	0,006
-641,926	-200,000	0,016	-0,090
-640,911	-54,145	0,061	-0,020
-639,897	-45,986	0,031	-0,011
-638,882	800,000	0,040	-0,122
-637,868	-117,909	0,041	-0,005
-636,853	-111,814	-0,216	-0,032
-635,838	-200,000	0,017	0,159
-634,824	172,850	-0,062	-0,065
-633,809	-200,000	0,009	0,064
-632,795	-126,831	0,105	-0,011
-631,780	269,128	0,044	0,057
-630,765	800,000	-0,017	-0,054
-629,751	-133,403	-0,108	-0,010
-628,736	-200,000	0,001	-0,061
-627,722	-136,391	-0,126	0,011
-626,707	-200,000	0,002	-0,017
-625,692	800,000	0,018	-0,056
-624,678	-86,799	-0,106	-0,024
-623,663	-143,678	-0,030	-0,002
-622,649	800,000	-0,029	-0,070
-621,634	-103,894	-0,120	0,020
-620,619	195,159	-0,071	-0,080
-619,605	60,524	0,043	0,031
-618,590	-200,000	0,010	0,120
-617,576	-109,998	0,171	0,026
-616,561	-200,000	-0,022	0,104
-615,546	-200,000	0,000	-0,145
-614,532	800,000	-0,097	-0,203
-613,517	558,457	-0,035	-0,063
-612,503	-174,290	0,112	0,002
-611,488	473,689	0,064	-0,106
-610,474	291,111	0,005	-0,006
-609,459	113,253	0,060	0,053
-608,444	800,000	-0,006	-0,014
-607,430	188,477	-0,047	0,051
-606,415	768,475	-0,063	-0,125
-605,401	-200,000	0,013	0,068
-604,386	-37,368	0,128	0,050
-603,371	-85,682	0,043	-0,010
-602,357	-106,082	0,020	0,003
-601,342	800,000	0,023	-0,053
-600,328	-200,000	0,005	0,083
-599,313	27,891	0,051	-0,031
-598,298	-44,317	0,067	0,024
-597,284	-161,254	0,067	-0,002
-596,269	-200,000	0,010	0,146
-595,255	-200,000	-0,017	0,081
-594,240	85,073	-0,015	-0,012
-593,225	800,000	-0,031	0,078
-592,211	-200,000	0,022	-0,149
-591,196	-52,176	0,080	0,027
-590,182	-101,099	-0,059	0,011
-589,167	800,000	0,034	-0,077
-588,152	-200,000	-0,013	0,151
-587,138	-31,369	0,059	-0,024
-586,123	-200,000	0,023	-0,075
-585,109	559,729	-0,035	0,062
-584,094	294,048	0,069	-0,092
-583,079	-104,041	0,191	-0,032
-582,065	-200,000	0,000	0,049
-581,050	-107,171	0,131	0,021
-580,036	800,000	0,055	0,127
-579,021	-79,064	0,125	0,031
-578,006	-200,000	-0,009	0,049
-576,992	800,000	0,028	-0,072
-575,977	132,318	-0,017	0,016
-574,963	218,872	-0,082	0,096
-573,948	20,060	0,101	0,059
-572,934	800,000	0,027	0,076
-571,919	103,249	-0,049	-0,042
-570,904	800,000	0,063	-0,186
-569,890	-3,946	-0,122	-0,062
-568,875	211,199	0,063	0,073
-567,861	-20,718	-0,072	-0,032
-566,846	124,686	-0,029	0,027
-565,831	-78,677	-0,063	-0,016
-564,817	-14,497	-0,028	-0,013
-563,802	-11,222	-0,086	-0,041
-562,788	-85,290	0,033	-0,008
-561,773	-200,000	0,001	-0,102
-560,758	800,000	-0,020	-0,058
-559,744	306,291	0,048	0,066
-558,729	-8,701	0,043	0,021
-557,715	-200,000	-0,029	-0,137
-556,700	37,415	-0,172	-0,111
-555,685	293,120	0,119	-0,158
-554,671	-36,970	0,020	-0,008
-553,656	800,000	-0,018	-0,039
-552,642	107,383	0,091	-0,079
-551,627	-53,564	-0,080	0,027
-550,612	683,215	-0,019	-0,036
-549,598	-65,550	0,077	-0,023
-548,583	91,734	0,055	0,045
-547,569	-200,000	-0,008	-0,049
-546,554	35,967	-0,099	0,063
-545,539	-93,066	0,156	0,031
-544,525	84,516	-0,094	0,075
-543,510	-200,000	0,008	-0,045
-542,496	69,296	-0,154	-0,116
-541,481	598,704	-0,035	0,064
-540,466	325,905	0,066	-0,093
-539,452	-15,051	0,194	0,091
-538,437	160,394	0,067	-0,068
-537,423	207,039	-0,061	-0,070
-536,408	800,000	0,045	0,105
-535,393	315,282	-0,065	-0,090
-534,379	88,902	0,046	-0,037
-533,364	450,351	0,079	-0,128
-532,350	78,903	-0,074	-0,058
-531,335	305,652	0,088	0,119
-530,321	-6,805	-0,081	0,040
-529,306	149,999	-0,044	-0,044
-528,291	268,655	-0,005	-0,007
-527,277	-200,000	0,025	-0,150
-526,262	-50,019	-0,146	-0,050
-525,248	-2,069	0,105	0,053
-524,233	-200,000	0,005	0,093
-523,218	-200,000	0,001	-0,139
-522,204	3,680	-0,033	-0,017
-521,189	-54,870	-0,098	-0,032
-520,175	57,427	0,010	0,007
-519,160	-131,061	0,174	0,017
-518,145	322,642	-0,080	0,112
-517,131	14,403	0,115	0,065
-516,116	-87,861	-0,008	0,002
-515,102	800,000	-0,016	-0,032
-514,087	-22,761	-0,044	-0,019
-513,072	800,000	-0,019	-0,060
-512,058	800,000	-0,055	-0,113
-511,043	-200,000	0,030	-0,129
-510,029	-56,565	0,051	0,016
-509,014	-82,695	-0,101	-0,024
-507,999	87,465	0,079	-0,063
-506,985	-200,000	-0,008	0,061
-505,970	566,402	0,091	0,162
-504,956	-200,000	0,009	-0,105
-503,941	-200,000	0,002	0,039
-502,926	-140,832	-0,110	0,008
-501,912	257,883	-0,086	0,108
-500,897	142,792	0,142	0,137
-499,883	302,672	-0,062	0,083
-498,868	-200,000	0,005	-0,044
-497,853	-26,090	0,097	0,041
-496,839	-175,910	-0,026	-0,000
-495,824	112,482	0,017	-0,015
-494,810	-200,000	-0,013	0,127
-493,795	122,700	0,092	-0,084
-492,781	-200,000	0,028	-0,155
-491,766	-39,865	-0,142	-0,054
-490,751	-62,158	-0,041	0,012
-489,737	-135,567	0,059	0,005
-488,722	-200,000	0,034	0,222
-487,708	-139,217	-0,137	-0,011
-486,693	-200,000	-0,008	0,072
-485,678	800,000	-0,041	0,110
-484,664	-200,000	0,004	-0,097
-483,649	-200,000	0,024	-0,159
-482,635	31,437	0,090	0,056
-481,620	-5,104	0,029	0,014
-480,605	-200,000	-0,014	-0,102
-479,591	51,886	-0,055	0,038
-478,576	-57,163	-0,089	-0,028
-477,562	192,439	0,045	-0,049
-476,547	4,050	-0,076	-0,040
-475,532	149,348	-0,051	-0,050
-474,518	800,000	-0,013	0,032
-473,503	83,256	-0,130	-0,103
-472,489	391,945	-0,136	0,207
-471,474	-119,179	0,081	-0,010
-470,459	-200,000	-0,008	-0,074
-469,445	-43,006	-0,065	0,024
-468,430	-89,591	-0,060	-0,013
-467,416	-34,025	-0,041	0,016
-466,401	41,444	0,100	0,066
-465,386	-200,000	0,003	-0,059
-464,372	-17,806	0,069	0,031
-463,357	-38,372	0,034	0,013
-462,343	-200,000	-0,002	0,076
-461,328	-44,052	0,157	0,057
-460,313	-110,469	-0,062	-0,009
-459,299	55,615	0,133	0,093
-458,284	541,021	-0,077	0,133
-457,270	-164,950	0,119	0,004
-456,255	-112,091	-0,129	0,019
-455,241	143,797	0,001	0,001
-454,226	-150,615	-0,031	0,002
-453,211	800,000	0,048	-0,118
-452,197	154,149	0,055	-0,055
-451,182	-34,637	0,111	0,044
-450,168	81,916	0,052	-0,041
-449,153	800,000	-0,062	-0,171
-448,138	-42,773	-0,065	0,024
-447,124	413,558	-0,017	-0,026
-446,109	-74,380	0,061	-0,016
-445,095	109,258	-0,050	-0,044
-444,080	-34,021	0,111	0,044
-443,065	239,535	-0,136	-0,165
-442,051	-82,802	-0,218	-0,051
-441,036	251,815	0,014	0,017
-440,022	-200,000	-0,023	-0,138
-439,007	800,000	-0,029	-0,072
-437,992	180,195	0,078	-0,083
-436,978	574,783	0,009	0,016
-435,963	-200,000	0,029	0,116
-434,949	-146,557	-0,144	0,009
-433,934	-78,256	-0,101	-0,025
-432,919	115,411	-0,116	-0,103
-431,905	164,354	-0,103	0,105
-430,890	24,627	-0,074	0,044
-429,876	-200,000	0,036	0,116
-428,861	267,665	0,060	0,077
-427,846	-177,683	-0,085	-0,001
-426,832	153,444	-0,084	-0,084
-425,817	-200,000	0,016	0,070
-424,803	800,000	-0,034	-0,074
-423,788	-194,439	-0,048	0,000
-422,773	139,155	-0,009	0,008
-421,759	-22,054	-0,021	0,009
-420,744	554,338	-0,031	0,055
-419,730	362,263	-0,048	-0,070
-418,715	-200,000	-0,005	-0,056
-417,701	800,000	-0,054	-0,145
-416,686	-166,963	0,182	0,005
-415,671	-200,000	0,015	0,168
-414,657	-200,000	-0,004	0,048
-413,642	800,000	-0,053	0,143
-412,628	-93,575	0,027	0,005
-411,613	800,000	-0,025	-0,076
-410,598	204,370	-0,100	-0,113
-409,584	-7,568	0,073	0,036
-408,569	752,296	0,014	0,027
-407,555	-200,000	-0,008	-0,056
-406,540	441,190	0,074	0,118
-405,525	681,966	-0,021	0,041
-404,511	166,963	-0,029	0,030
-403,496	422,843	0,038	0,059
-402,482	404,826	0,079	0,121
-401,467	-200,000	-0,015	0,170
-400,452	35,913	0,115	-0,073
-399,438	-71,880	-0,058	-0,016
-398,423	107,866	0,031	-0,026
-397,409	-167,590	0,036	0,001
-396,394	669,173	-0,047	-0,088
-395,379	-32,412	0,067	0,027
-394,365	455,745	0,068	-0,110
-393,350	507,758	0,016	0,027
-392,336	280,826	0,005	-0,007
-391,321	454,612	-0,123	-0,199
-390,306	186,111	-0,027	0,030
-389,292	267,650	0,030	-0,038
-388,277	-154,364	0,059	-0,003
-387,263	2,516	-0,108	-0,057
-386,248	333,857	-0,033	0,046
-385,233	606,215	-0,025	0,045
-384,219	800,000	-0,058	0,130
-383,204	108,397	-0,016	-0,014
-382,190	800,000	-0,027	-0,056
-381,175	49,661	-0,050	-0,034
-380,160	-57,008	-0,109	0,035
-379,146	13,739	0,080	0,045
-378,131	-200,000	-0,002	-0,043
-377,117	-200,000	0,005	-0,051
-376,102	800,000	-0,039	-0,093
-375,088	177,313	0,150	-0,159
-374,073	502,103	0,032	0,053
-373,058	-48,327	-0,058	0,020
-372,044	97,551	0,078	-0,065
-371,029	-200,000	-0,018	-0,062
-370,015	244,333	-0,087	-0,106
-369,000	90,409	0,080	-0,065
-367,985	154,301	-0,038	-0,038
-366,971	48,017	0,055	0,037
-365,956	-200,000	0,039	0,161
-364,942	-114,930	0,072	-0,010
-363,927	-144,626	-0,062	0,004
-362,912	785,679	0,043	0,086
-361,898	301,768	-0,067	-0,090
-360,883	-29,156	0,066	0,027
-359,869	322,362	-0,043	0,060
-358,854	-129,817	-0,042	0,004
-357,839	-200,000	0,029	0,109
-356,825	-157,072	-0,063	0,003
-355,810	-200,000	0,000	0,003
-354,796	21,670	0,066	-0,039
-353,781	107,160	-0,103	-0,089
-352,766	-139,013	0,160	0,012
-351,752	-41,750	0,077	0,028
-350,737	-90,510	0,104	-0,022
-349,723	-65,921	-0,015	-0,004
-348,708	16,751	0,165	-0,094
-347,693	800,000	0,025	-0,051
-346,679	371,626	0,028	0,041
-345,664	112,594	0,102	-0,089
-344,650	339,532	-0,017	0,023
-343,635	60,737	0,076	0,055
-342,620	378,490	0,012	-0,018
-341,606	275,174	-0,019	0,025
-340,591	-200,000	0,006	0,066
-339,577	334,281	-0,035	-0,050
-338,562	-19,160	-0,067	-0,030
-337,548	71,465	0,084	0,063
-336,533	490,394	0,112	0,186
-335,518	-35,129	0,040	-0,016
-334,504	-200,000	-0,007	-0,096
-333,489	-200,000	-0,007	-0,023
-332,475	-179,583	-0,123	-0,002
-331,460	-63,051	-0,042	-0,013
-330,445	-200,000	0,006	-0,045
-329,431	800,000	-0,018	0,052
-328,416	800,000	0,057	0,172
-327,402	5,694	-0,117	0,063
-326,387	320,491	-0,069	-0,095
-325,372	-48,969	-0,030	-0,010
-324,358	674,270	0,051	-0,095
-323,343	-200,000	-0,012	0,115
-322,329	-200,000	0,043	0,140
-321,314	800,000	0,018	-0,040
-320,299	329,897	0,027	-0,038
-319,285	-68,796	-0,119	0,033
-318,270	800,000	-0,053	-0,107
-317,256	-149,144	0,142	0,008
-316,241	135,494	-0,054	0,051
-315,226	465,399	0,019	-0,031
-314,212	128,802	0,111	0,103
-313,197	157,001	0,101	-0,101
-312,183	-72,948	0,054	0,014
-311,168	800,000	0,046	0,111
-310,153	51,015	-0,047	0,032
-309,139	109,922	0,013	-0,011
-308,124	131,530	0,063	0,059
-307,110	-200,000	-0,010	0,080
-306,095	-142,008	-0,107	-0,008
-305,080	-90,014	-0,020	0,004
-304,066	-71,303	-0,112	-0,030
-303,051	800,000	0,027	-0,070
-302,037	239,065	0,078	-0,094
-301,022	-38,165	-0,134	0,051
-300,008	-200,000	-0,027	-0,108
-298,993	-200,000	-0,027	0,105
-297,978	-200,000	-0,007	-0,125
-296,964	-156,021	0,007	-0,000
-295,949	-51,458	0,032	-0,011
-294,935	-32,246	-0,034	0,014
-293,920	-200,000	-0,003	0,046
-292,905	-200,000	-0,041	0,138
-291,891	157,504	-0,082	0,082
-290,876	-80,579	-0,062	-0,015
-289,862	-119,139	-0,111	0,014
-288,847	100,911	0,048	-0,040
-287,832	-200,000	-0,029	-0,150
-286,818	-22,851	0,120	-0,052
-285,803	115,620	0,012	0,011
-284,789	36,083	-0,134	0,085
-283,774	51,561	0,022	0,015
-282,759	412,535	0,051	-0,078
-281,745	50,947	-0,100	-0,069
-280,730	149,207	-0,067	0,066
-279,716	-200,000	-0,024	-0,089
-278,701	-53,998	0,064	0,021
-277,686	-35,907	0,106	0,041
-276,672	32,439	-0,072	0,045
-275,657	28,752	0,158	0,097
-274,643	800,000	-0,033	-0,076
-273,628	-200,000	0,049	-0,000
-272,613	279,946	-0,058	-0,075
-271,599	527,654	0,022	0,037
-270,584	-19,651	0,056	0,025
-269,570	-3,245	0,094	-0,047
-268,555	225,571	-0,086	0,101
-267,540	85,216	-0,052	0,041
-266,526	281,354	-0,111	0,144
-265,511	313,155	-0,056	-0,076
-264,497	-110,454	-0,125	-0,018
-263,482	-200,000	-0,009	-0,052
-262,467	-200,000	-0,003	0,055
-261,453	206,030	-0,044	-0,050
-260,438	153,182	0,077	-0,076
-259,424	-40,759	-0,074	0,028
-258,409	33,449	0,107	0,067
-257,395	-72,914	0,084	0,022
-256,380	-200,000	0,038	0,233
-255,365	-137,059	0,078	-0,006
-254,351	332,177	-0,100	0,139
-253,336	-200,000	-0,028	0,000
-252,322	3,211	-0,121	-0,063
-251,307	-200,000	0,009	0,085
-250,292	18,256	0,089	-0,051
-249,278	-200,000	0,025	-0,143
-248,263	-200,000	-0,011	0,106
-247,249	-19,201	-0,057	0,025
-246,234	-132,623	-0,086	-0,008
-245,219	-10,950	-0,152	-0,072
-244,205	-200,000	0,036	0,233
-243,190	800,000	0,045	0,091
-242,176	309,171	0,157	-0,212
-241,161	-113,620	0,140	0,019
-240,146	-200,000	-0,027	-0,093
-239,132	800,000	0,028	0,072
-238,117	800,000	0,074	-0,162
-237,103	-200,000	-0,029	-0,104
-236,088	-200,000	0,001	0,013
-235,073	-139,602	-0,073	-0,006
-234,059	-101,686	-0,059	0,010
-233,044	-200,000	0,022	0,174
-232,030	663,309	0,028	-0,052
-231,015	195,368	-0,061	-0,067
-230,000	-200,000	-0,018	0,058
-228,986	-128,177	-0,090	0,009
-227,971	-200,000	0,008	-0,071
-226,957	218,236	0,035	0,040
-225,942	91,970	0,032	0,026
-224,927	800,000	0,053	-0,116
-223,913	347,243	0,042	-0,059
-222,898	-200,000	0,009	-0,090
-221,884	38,398	0,056	0,036
-220,869	647,304	0,089	0,164
-219,855	-166,488	-0,029	-0,001
-218,840	40,188	-0,137	0,089
-217,825	151,279	-0,061	0,060
-216,811	116,853	0,037	-0,033
-215,796	800,000	-0,066	-0,152
-214,782	-126,039	0,161	-0,017
-213,767	-200,000	0,035	-0,113
-212,752	336,254	0,128	0,179
-211,738	800,000	-0,033	0,069
-210,723	0,197	0,029	0,015
-209,709	-70,747	-0,061	-0,017
-208,694	-72,817	-0,215	0,057
-207,679	-113,002	-0,027	0,004
-206,665	528,345	-0,015	-0,026
-205,650	114,143	-0,039	-0,034
-204,636	-200,000	0,041	0,156
-203,621	-200,000	-0,003	0,083
-202,606	592,840	0,064	0,115
-201,592	53,088	-0,056	-0,039
-200,577	154,137	0,017	-0,017
-199,563	-77,223	0,075	0,019
-198,548	66,271	-0,016	0,012
-197,533	-77,685	-0,035	0,009
-196,519	68,172	0,084	-0,061
-195,504	-148,222	0,011	-0,001
-194,490	-60,476	-0,081	0,025
-193,475	-102,222	0,037	-0,006
-192,460	-200,000	-0,017	0,058
-191,446	-136,452	0,096	0,008
-190,431	800,000	0,036	0,079
-189,417	79,093	0,097	0,074
-188,402	-6,915	0,006	0,003
-187,387	-36,395	-0,100	-0,038
-186,373	243,656	-0,040	-0,049
-185,358	-76,409	0,161	0,040
-184,344	800,000	-0,011	0,027
-183,329	30,285	0,163	-0,100
-182,315	-200,000	0,016	0,075
-181,300	-200,000	-0,006	0,048
-180,285	-57,534	-0,072	-0,023
-179,271	5,126	0,045	0,024
-178,256	200,595	0,121	0,134
-177,242	201,266	-0,004	0,005
-176,227	-200,000	0,009	-0,112
-175,212	-200,000	-0,005	0,186
-174,198	-200,000	0,028	0,099
-173,183	-200,000	-0,016	0,052
-172,169	-87,284	0,066	0,014
-171,154	-200,000	-0,005	0,072
-170,139	-200,000	0,004	-0,139
-169,125	246,488	0,084	-0,102
-168,110	404,149	-0,044	0,068
-167,096	800,000	-0,050	0,114
-166,081	800,000	-0,070	0,146
-165,066	-200,000	-0,020	-0,105
-164,052	-124,818	0,075	0,008
-163,037	99,960	0,069	-0,057
-162,023	-119,939	-0,115	0,014
-161,008	-79,416	-0,046	-0,011
-159,993	59,923	-0,084	0,060
-158,979	-4,183	0,062	-0,031
-157,964	-200,000	0,005	0,059
-156,950	800,000	0,029	0,070
-155,935	26,926	0,088	-0,053
-154,920	-200,000	-0,003	0,029
-153,906	478,340	-0,058	0,095
-152,891	1,232	-0,024	0,012
-151,877	-47,777	0,127	0,044
-150,862	165,512	-0,086	-0,087
-149,847	154,812	0,073	0,072
-148,833	-130,899	0,086	-0,008
-147,818	-200,000	-0,002	0,031
-146,804	582,606	0,034	-0,061
-145,789	563,413	0,039	-0,069
-144,775	95,096	-0,093	0,076
-143,760	-114,023	-0,117	-0,016
-142,745	123,227	-0,018	-0,016
-141,731	58,120	0,127	0,089
-140,716	199,996	-0,050	-0,055
-139,702	-109,419	0,080	0,012
-138,687	800,000	0,002	0,008
-137,672	-97,831	0,036	-0,007
-136,658	97,946	-0,048	-0,039
-135,643	-200,000	0,027	0,117
-134,629	41,106	-0,107	-0,069
-133,614	800,000	0,005	0,011
-132,599	-200,000	-0,026	-0,085
-131,585	-44,925	-0,126	0,045
-130,570	296,397	0,034	0,044
-129,556	800,000	0,058	-0,146
-128,541	800,000	0,033	-0,071
-127,526	800,000	-0,010	0,021
-126,512	800,000	0,033	0,077
-125,497	-35,513	0,151	0,059
-124,483	344,199	-0,083	0,118
-123,468	-110,760	0,092	-0,014
-122,453	-29,611	-0,079	0,032
-121,439	-200,000	-0,008	-0,077
-120,424	-19,076	0,061	0,027
