DTS Sentinel unit serial number:	SN410029Multiplexer serial number:	ORYXHardware model number:	OX2-SRSoftware version number:	ORYX F/W v4,00 Oryx Data Collector v3.7.2.0data status	okinstallation	B6 Nyhavnadifferential loss correction	single-endedforward channel	channel 2reverse channel	N/Adate	2023/12/08time	10:30:08forward acquisition time	300,00reverse acquisition time	0,00gamma	499,1914k internal	0,3163k external	0,3163temperature offset calibration	1,0000default loss term (dB/km)	0,3820temperature slope calibration	1,0000multiplexer offset coefficient	1,0000multiplexer slope coefficient	1,0000fibre end	0,00T internal ref (°C)	14,42T ext. ref 1 (°C)	-1,28T ext. ref 2 (°C)	-1,24length (m)	temperature (°C)	Stokes	anti-Stokes-744,400	234,433	0,146	0,178
-743,385	-132,503	-0,369	0,035
-742,371	763,220	0,075	0,151
-741,356	-60,845	-0,228	-0,071
-740,342	11,543	0,154	0,087
-739,327	-84,716	-0,394	-0,091
-738,312	9,228	0,059	0,032
-737,298	-88,290	-0,480	-0,105
-736,283	-121,150	0,101	0,012
-735,269	-79,951	-0,325	0,080
-734,254	-16,480	0,096	0,044
-733,239	-86,285	-0,423	-0,095
-732,225	625,717	0,091	0,170
-731,210	-200,000	0,015	0,055
-730,196	-193,213	0,147	-0,001
-729,181	-183,863	-0,209	-0,003
-728,167	-200,000	0,010	0,074
-727,152	-200,000	-0,018	0,100
-726,137	54,151	-0,055	0,039
-725,123	800,000	-0,024	-0,048
-724,108	800,000	-0,022	-0,047
-723,094	61,255	-0,146	-0,107
-722,079	-200,000	-0,064	0,000
-721,064	-200,000	0,014	-0,064
-720,050	33,400	-0,132	-0,084
-719,035	272,116	0,035	-0,046
-718,021	-173,514	-0,062	0,001
-717,006	18,223	-0,119	-0,069
-715,991	-36,632	-0,083	-0,032
-714,977	-44,134	0,087	-0,032
-713,962	43,451	-0,104	0,070
-712,948	-200,000	-0,007	-0,150
-711,933	800,000	0,039	0,110
-710,918	-63,504	-0,048	-0,014
-709,904	-91,036	-0,053	0,011
-708,889	-200,000	-0,016	-0,117
-707,875	-200,000	0,028	-0,094
-706,860	-67,829	-0,090	-0,026
-705,845	470,356	-0,065	-0,107
-704,831	-23,532	0,072	0,032
-703,816	-172,607	0,079	-0,002
-702,802	-21,058	-0,153	0,069
-701,787	800,000	0,017	0,046
-700,772	800,000	-0,009	0,027
-699,758	133,989	-0,071	-0,068
-698,743	800,000	0,060	0,168
-697,729	31,076	-0,053	-0,033
-696,714	800,000	0,052	0,116
-695,699	11,930	-0,092	-0,052
-694,685	426,967	-0,044	-0,069
-693,670	127,768	-0,078	-0,073
-692,656	-106,195	-0,035	-0,006
-691,641	-200,000	0,031	-0,102
-690,627	221,098	0,043	0,051
-689,612	238,208	-0,035	-0,043
-688,597	-24,853	0,085	0,037
-687,583	-10,984	-0,137	-0,066
-686,568	45,934	-0,083	-0,056
-685,554	-14,790	0,035	-0,016
-684,539	-200,000	0,009	0,060
-683,524	362,558	-0,082	0,121
-682,510	83,950	0,082	-0,066
-681,495	75,249	-0,098	-0,076
-680,481	-200,000	0,023	-0,097
-679,466	107,312	-0,091	-0,080
-678,451	278,547	0,021	-0,028
-677,437	-200,000	-0,037	0,165
-676,422	-200,000	0,025	-0,096
-675,408	-63,817	-0,064	0,019
-674,393	-200,000	0,022	0,086
-673,378	-70,721	-0,134	-0,037
-672,364	741,562	0,062	-0,122
-671,349	609,511	0,009	-0,017
-670,335	119,169	-0,070	-0,063
-669,320	81,846	0,068	-0,054
-668,305	-164,389	-0,080	-0,003
-667,291	-121,476	-0,091	0,011
-666,276	-200,000	0,025	-0,192
-665,262	70,724	-0,064	-0,049
-664,247	390,995	-0,048	0,073
-663,232	-200,000	-0,026	-0,113
-662,218	800,000	-0,039	-0,116
-661,203	800,000	0,017	-0,036
-660,189	-200,000	-0,001	0,048
-659,174	-134,645	-0,168	0,015
-658,159	193,587	-0,066	-0,073
-657,145	800,000	0,016	-0,045
-656,130	-140,871	0,014	0,001
-655,116	-49,980	-0,049	0,017
-654,101	96,765	-0,079	0,066
-653,086	-122,188	-0,055	0,007
-652,072	643,182	-0,057	0,107
-651,057	190,017	0,023	-0,026
-650,043	53,298	-0,094	0,066
-649,028	-200,000	0,009	-0,142
-648,014	502,073	-0,043	0,073
-646,999	445,201	0,079	-0,127
-645,984	-42,436	-0,042	0,016
-644,970	-83,884	0,076	0,018
-643,955	800,000	0,053	-0,141
-642,941	800,000	-0,042	0,089
-641,926	-200,000	-0,013	0,071
-640,911	800,000	-0,036	-0,114
-639,897	66,185	-0,091	0,067
-638,882	-25,443	0,021	0,009
-637,868	27,356	-0,020	-0,012
-636,853	-13,324	-0,128	-0,061
-635,838	-140,217	-0,121	-0,009
-634,824	251,715	-0,071	-0,089
-633,809	318,588	0,051	-0,070
-632,795	172,230	0,059	0,062
-631,780	-200,000	-0,008	0,096
-630,765	-200,000	0,015	0,109
-629,751	800,000	0,013	-0,030
-628,736	40,276	-0,143	-0,094
-627,722	800,000	0,041	-0,133
-626,707	-1,217	0,129	0,067
-625,692	156,692	-0,108	-0,109
-624,678	-59,516	-0,072	-0,023
-623,663	438,657	-0,102	0,163
-622,649	-200,000	-0,015	-0,109
-621,634	800,000	0,002	0,006
-620,619	800,000	-0,027	0,075
-619,605	-88,967	0,125	0,027
-618,590	528,006	-0,071	-0,123
-617,576	-97,491	0,052	-0,010
-616,561	-150,867	-0,100	0,005
-615,546	800,000	0,019	-0,060
-614,532	-200,000	0,002	-0,044
-613,517	-200,000	-0,014	-0,227
-612,503	-200,000	0,018	0,104
-611,488	-49,937	0,130	0,045
-610,474	-115,742	0,065	-0,009
-609,459	-49,832	-0,045	-0,016
-608,444	-200,000	0,011	-0,109
-607,430	290,253	0,091	-0,121
-606,415	-1,050	0,065	-0,034
-605,401	-200,000	0,007	-0,052
-604,386	346,859	0,091	0,131
-603,371	171,959	0,032	0,033
-602,357	383,507	-0,069	0,104
-601,342	121,361	0,122	-0,111
-600,328	52,921	-0,100	-0,070
-599,313	55,207	0,029	0,021
-598,298	-103,633	-0,082	0,014
-597,284	-35,443	0,108	-0,043
-596,269	-4,204	0,060	-0,031
-595,255	238,879	0,096	-0,117
-594,240	-200,000	0,006	0,101
-593,225	-90,473	-0,022	-0,005
-592,211	800,000	-0,031	0,100
-591,196	-164,329	0,090	0,003
-590,182	-200,000	-0,010	0,168
-589,167	100,633	-0,094	0,080
-588,152	-200,000	0,017	-0,140
-587,138	381,849	-0,025	0,038
-586,123	62,721	0,075	-0,054
-585,109	211,250	-0,055	0,063
-584,094	-5,996	-0,050	0,025
-583,079	-14,354	-0,033	0,016
-582,065	800,000	0,030	0,085
-581,050	406,710	-0,052	0,080
-580,036	142,862	-0,074	0,072
-579,021	231,638	-0,046	-0,055
-578,006	-53,374	-0,073	-0,024
-576,992	-102,800	0,045	0,008
-575,977	-200,000	0,004	-0,087
-574,963	75,030	0,068	-0,053
-573,948	392,708	-0,023	0,036
-572,934	-200,000	0,018	-0,170
-571,919	337,385	0,047	0,067
-570,904	61,287	0,052	-0,038
-569,890	0,274	-0,034	0,018
-568,875	-100,957	0,148	0,026
-567,861	-200,000	-0,025	0,088
-566,846	-200,000	0,019	0,095
-565,831	386,676	-0,005	-0,007
-564,817	-5,397	-0,023	-0,012
-563,802	800,000	0,033	-0,086
-562,788	-200,000	-0,025	-0,084
-561,773	45,105	0,103	0,069
-560,758	800,000	0,047	-0,107
-559,744	-200,000	0,006	-0,035
-558,729	-155,959	0,096	-0,004
-557,715	-26,732	-0,142	-0,060
-556,700	-200,000	0,043	-0,161
-555,685	-200,000	-0,020	-0,078
-554,671	-200,000	0,006	-0,188
-553,656	79,808	-0,014	-0,011
-552,642	-10,642	-0,088	0,042
-551,627	529,637	-0,011	0,019
-550,612	-157,984	-0,078	-0,003
-549,598	-70,613	-0,182	-0,050
-548,583	-200,000	0,009	-0,050
-547,569	-161,852	0,023	-0,001
-546,554	462,030	-0,043	0,071
-545,539	-0,723	0,049	-0,025
-544,525	-96,751	0,117	0,022
-543,510	-26,010	-0,074	0,031
-542,496	-58,224	0,039	-0,012
-541,481	600,423	-0,088	-0,160
-540,466	800,000	-0,050	-0,108
-539,452	-158,861	0,139	-0,006
-538,437	74,063	-0,046	-0,035
-537,423	249,170	0,043	0,054
-536,408	-20,122	-0,154	0,069
-535,393	443,491	0,030	0,049
-534,379	93,582	-0,125	-0,103
-533,364	-104,802	-0,094	0,016
-532,350	-200,000	-0,030	0,166
-531,335	-200,000	0,004	0,059
-530,321	165,717	0,106	0,109
-529,306	-200,000	-0,020	0,079
-528,291	37,909	-0,077	-0,050
-527,277	-109,398	-0,170	-0,026
-526,262	800,000	0,041	-0,131
-525,248	43,629	-0,041	0,027
-524,233	-122,035	-0,108	0,013
-523,218	-109,617	0,138	-0,021
-522,204	-200,000	0,018	0,112
-521,189	355,081	-0,101	-0,147
-520,175	-117,407	-0,084	-0,011
-519,160	4,316	0,078	-0,042
-518,145	800,000	0,022	-0,066
-517,131	636,011	0,045	-0,083
-516,116	800,000	0,039	0,093
-515,102	80,719	0,054	0,042
-514,087	-12,072	0,018	-0,009
-513,072	-200,000	0,002	0,034
-512,058	228,241	-0,093	-0,111
-511,043	462,929	-0,045	-0,074
-510,029	10,291	-0,091	-0,050
-509,014	-200,000	0,012	-0,054
-507,999	-13,716	0,139	0,065
-506,985	-179,406	-0,156	-0,002
-505,970	-8,260	0,108	0,053
-504,956	66,635	-0,089	0,066
-503,941	-82,827	-0,061	-0,014
-502,926	-200,000	-0,006	-0,046
-501,912	-70,309	0,069	-0,019
-500,897	51,327	-0,063	0,043
-499,883	-200,000	-0,014	0,057
-498,868	-54,183	-0,133	0,044
-497,853	637,788	0,094	0,175
-496,839	-131,132	0,010	-0,001
-495,824	3,822	0,040	-0,021
-494,810	-200,000	0,004	-0,041
-493,795	457,944	-0,025	-0,041
-492,781	379,688	-0,042	-0,062
-491,766	91,640	-0,118	-0,096
-490,751	-200,000	0,026	-0,097
-489,737	86,919	-0,021	0,017
-488,722	-200,000	-0,012	0,074
-487,708	307,846	-0,080	-0,109
-486,693	-95,083	0,105	0,021
-485,678	-92,487	0,128	0,026
-484,664	-200,000	0,001	-0,044
-483,649	-78,559	-0,129	0,032
-482,635	-200,000	-0,042	0,137
-481,620	239,234	0,011	0,013
-480,605	-139,724	0,097	0,007
-479,591	-70,678	-0,179	-0,049
-478,576	800,000	-0,012	0,033
-477,562	-200,000	0,004	-0,044
-476,547	238,021	-0,067	-0,081
-475,532	605,368	0,037	-0,068
-474,518	-165,830	-0,009	-0,000
-473,503	111,695	0,063	0,055
-472,489	-200,000	0,008	0,036
-471,474	74,814	-0,093	0,071
-470,459	800,000	-0,031	-0,099
-469,445	800,000	-0,008	0,025
-468,430	-181,827	-0,043	0,001
-467,416	-3,248	0,124	0,062
-466,401	-96,313	0,014	-0,003
-465,386	8,651	0,021	-0,011
-464,372	-119,780	-0,188	-0,023
-463,357	624,338	0,055	-0,101
-462,343	534,879	0,086	0,149
-461,328	14,440	-0,066	-0,037
-460,313	505,654	-0,031	0,053
-459,299	156,808	0,023	-0,024
-458,284	-200,000	-0,017	-0,070
-457,270	132,781	0,042	0,039
-456,255	-200,000	0,024	-0,116
-455,241	194,747	-0,082	-0,091
-454,226	-86,928	-0,065	-0,014
-453,211	1,641	-0,027	-0,014
-452,197	47,019	0,194	-0,131
-451,182	35,043	0,122	0,078
-450,168	-174,845	0,073	-0,001
-449,153	-200,000	0,003	-0,120
-448,138	132,037	-0,125	-0,117
-447,124	377,654	0,014	0,021
-446,109	172,793	-0,050	-0,052
-445,095	800,000	0,023	0,047
-444,080	-86,516	-0,026	0,006
-443,065	426,510	0,109	0,171
-442,051	482,576	-0,038	0,063
-441,036	-183,801	-0,229	0,003
-440,022	211,932	-0,084	-0,097
-439,007	-200,000	-0,012	-0,048
-437,992	153,131	0,007	0,007
-436,978	26,444	0,121	0,073
-435,963	13,171	0,092	-0,051
-434,949	166,930	-0,022	-0,023
-433,934	-200,000	-0,007	-0,074
-432,919	238,022	0,044	0,053
-431,905	122,524	0,102	-0,093
-430,890	18,072	-0,028	0,016
-429,876	-200,000	-0,003	0,036
-428,861	-15,414	0,074	0,034
-427,846	-4,401	0,068	0,034
-426,832	-94,241	-0,120	0,024
-425,817	-14,325	0,051	0,024
-424,803	-169,966	-0,108	0,003
-423,788	-200,000	-0,008	-0,106
-422,773	132,902	0,136	0,128
-421,759	-48,038	0,123	0,043
-420,744	-3,720	-0,090	0,045
-419,730	-125,280	-0,216	0,024
-418,715	800,000	0,031	0,073
-417,701	-4,256	0,096	0,048
-416,686	-33,371	0,139	-0,056
-415,671	-19,763	-0,023	0,010
-414,657	228,816	0,042	0,050
-413,642	-158,752	0,075	0,003
-412,628	-200,000	0,040	-0,163
-411,613	800,000	-0,066	0,154
-410,598	157,430	-0,118	0,118
-409,584	800,000	-0,039	0,122
-408,569	397,252	0,084	0,127
-407,555	800,000	0,032	0,094
-406,540	-90,947	-0,033	0,007
-405,525	683,737	0,049	-0,093
-404,511	-70,741	-0,191	-0,052
-403,496	800,000	-0,022	-0,048
-402,482	486,241	0,057	-0,094
-401,467	56,378	-0,009	0,006
-400,452	-59,896	0,071	0,022
-399,438	511,243	-0,027	0,047
-398,423	80,608	0,096	0,075
-397,409	20,419	-0,093	0,054
-396,394	446,681	-0,031	-0,050
-395,379	119,515	-0,060	0,054
-394,365	49,908	-0,006	0,004
-393,350	436,630	0,064	0,102
-392,336	484,302	0,101	-0,167
-391,321	-200,000	0,031	-0,115
-390,306	800,000	-0,074	0,199
-389,292	800,000	0,031	-0,094
-388,277	104,412	0,109	0,093
-387,263	-200,000	-0,014	0,048
-386,248	-200,000	-0,016	0,094
-385,233	312,794	-0,065	-0,089
-384,219	-200,000	-0,025	-0,204
-383,204	-31,442	-0,061	-0,025
-382,190	8,724	-0,121	0,066
-381,175	76,652	-0,105	-0,081
-380,160	116,694	0,079	0,071
-379,146	-200,000	-0,041	0,218
-378,131	-108,168	0,093	0,014
-377,117	800,000	0,033	-0,071
-376,102	-54,764	-0,097	-0,031
-375,088	800,000	0,051	-0,132
-374,073	-56,075	-0,070	-0,022
-373,058	176,826	0,101	0,107
-372,044	479,269	0,029	0,048
-371,029	-134,094	0,121	0,011
-370,015	137,282	0,037	-0,035
-369,000	-112,422	0,067	-0,010
-367,985	-200,000	-0,011	-0,157
-366,971	391,820	-0,101	-0,153
-365,956	423,453	0,061	0,095
-364,942	-200,000	0,004	-0,016
-363,927	3,550	-0,008	-0,004
-362,912	-200,000	-0,026	0,142
-361,898	-53,138	-0,071	-0,024
-360,883	46,711	-0,024	0,016
-359,869	337,693	-0,044	-0,063
-358,854	800,000	0,032	0,081
-357,839	-165,907	0,069	0,002
-356,825	95,023	-0,115	0,095
-355,810	-200,000	0,010	0,146
-354,796	74,271	0,055	0,042
-353,781	-200,000	0,030	-0,223
-352,766	47,108	0,053	0,036
-351,752	-200,000	-0,028	-0,105
-350,737	242,300	0,052	0,063
-349,723	800,000	0,031	0,070
-348,708	-200,000	0,011	0,065
-347,693	-72,033	0,090	-0,024
-346,679	238,075	-0,083	-0,100
-345,664	800,000	-0,019	0,039
-344,650	9,235	0,108	-0,059
-343,635	-200,000	-0,012	0,083
-342,620	-182,855	-0,090	-0,001
-341,606	71,163	0,037	-0,027
-340,591	-71,164	-0,135	-0,037
-339,577	-75,730	-0,110	-0,028
-338,562	439,350	-0,043	-0,068
-337,548	800,000	0,026	0,059
-336,533	3,470	0,086	-0,045
-335,518	427,444	-0,041	-0,065
-334,504	-200,000	0,014	-0,131
-333,489	62,732	-0,144	-0,104
-332,475	143,368	-0,160	-0,155
-331,460	-200,000	-0,003	0,099
-330,445	-127,288	-0,017	0,002
-329,431	-85,367	-0,030	-0,007
-328,416	-200,000	-0,021	0,213
-327,402	800,000	0,016	0,038
-326,387	310,801	-0,025	0,034
-325,372	-149,459	-0,081	-0,005
-324,358	26,814	-0,050	-0,030
-323,343	-126,510	-0,054	0,006
-322,329	-200,000	-0,029	0,124
-321,314	-67,562	0,067	0,019
-320,299	-86,552	0,083	-0,018
-319,285	-106,534	-0,106	0,017
-318,270	542,731	-0,022	0,037
-317,256	-4,935	-0,086	-0,043
-316,241	-200,000	-0,039	0,155
-315,226	34,456	0,079	0,050
-314,212	-200,000	-0,012	0,044
-313,197	459,398	0,103	0,166
-312,183	-6,892	0,048	0,024
-311,168	800,000	0,026	-0,074
-310,153	355,003	0,052	-0,075
-309,139	-200,000	0,014	0,171
-308,124	-113,808	-0,027	0,004
-307,110	-179,387	-0,122	0,002
-306,095	376,089	-0,047	0,070
-305,080	-200,000	-0,003	0,029
-304,066	-163,032	-0,143	-0,005
-303,051	800,000	-0,011	-0,022
-302,037	-200,000	-0,012	0,057
-301,022	74,504	0,090	-0,069
-300,008	-46,071	-0,052	-0,018
-298,993	203,991	0,101	0,113
-297,978	34,102	0,047	0,030
-296,964	-83,404	-0,121	0,028
-295,949	235,730	-0,075	-0,090
-294,935	-7,925	0,063	0,030
-293,920	800,000	0,016	0,039
-292,905	800,000	0,035	0,078
-291,891	77,216	0,009	-0,007
-290,876	-41,439	-0,103	0,038
-289,862	453,385	-0,025	-0,040
-288,847	-48,553	0,007	-0,002
-287,832	61,119	0,114	-0,082
-286,818	-200,000	0,005	-0,056
-285,803	120,124	-0,044	0,039
-284,789	-200,000	0,022	0,123
-283,774	-78,627	0,114	-0,028
-282,759	-200,000	-0,026	0,091
-281,745	234,533	-0,034	0,040
-280,730	-188,206	-0,055	0,000
-279,716	124,180	0,050	0,045
-278,701	800,000	-0,020	0,062
-277,686	-66,485	0,120	0,034
-276,672	324,273	0,063	-0,087
-275,657	61,764	-0,034	-0,024
-274,643	-200,000	-0,004	0,053
-273,628	-200,000	-0,005	0,049
-272,613	-42,063	-0,097	0,036
-271,599	14,286	0,086	0,048
-270,584	-200,000	-0,029	0,097
-269,570	-35,264	0,079	0,031
-268,555	0,956	0,076	-0,039
-267,540	800,000	-0,037	-0,092
-266,526	-200,000	-0,002	-0,020
-265,511	-200,000	-0,005	-0,061
-264,497	800,000	-0,009	-0,029
-263,482	375,351	0,060	-0,089
-262,467	-200,000	-0,002	-0,075
-261,453	-41,525	0,115	0,042
-260,438	308,750	-0,052	0,070
-259,424	-200,000	0,010	0,056
-258,409	-152,057	-0,041	-0,002
-257,395	184,657	-0,089	0,096
-256,380	-135,508	0,105	0,009
-255,365	125,306	-0,038	-0,035
-254,351	632,588	-0,053	-0,098
-253,336	-97,848	-0,026	0,005
-252,322	-200,000	-0,008	-0,112
-251,307	-200,000	0,024	-0,126
-250,292	-200,000	0,008	-0,031
-249,278	10,845	0,152	0,083
-248,263	191,696	-0,093	0,101
-247,249	-200,000	0,004	0,087
-246,234	-200,000	-0,015	-0,054
-245,219	758,879	-0,040	-0,078
-244,205	-112,735	-0,111	0,016
-243,190	800,000	0,020	0,055
-242,176	108,530	0,043	0,037
-241,161	800,000	0,030	-0,088
-240,146	250,809	-0,044	0,054
-239,132	-200,000	-0,005	0,094
-238,117	-200,000	-0,036	-0,147
-237,103	-200,000	-0,003	-0,087
-236,088	-58,812	0,113	-0,035
-235,073	-6,431	0,065	0,032
-234,059	-20,773	-0,117	0,052
-233,044	-127,605	0,069	-0,007
-232,030	53,578	0,036	0,025
-231,015	30,653	0,067	0,041
-230,000	154,952	-0,062	-0,062
-228,986	-124,690	0,022	-0,002
-227,971	150,738	-0,098	0,096
-226,957	-104,140	0,154	-0,026
-225,942	140,339	-0,073	0,069
-224,927	32,598	0,144	0,090
-223,913	110,188	0,067	-0,058
-222,898	-200,000	0,001	-0,176
-221,884	-82,702	0,110	-0,025
-220,869	-172,903	0,096	0,002
-219,855	-200,000	-0,002	-0,015
-218,840	800,000	0,051	0,144
-217,825	800,000	-0,044	-0,094
-216,811	800,000	0,074	-0,180
-215,796	-200,000	-0,022	-0,126
-214,782	1,815	0,153	0,079
-213,767	630,961	0,052	0,095
-212,752	562,843	0,028	0,050
-211,738	-135,893	-0,034	-0,003
-210,723	-200,000	0,005	0,145
-209,709	-3,844	-0,105	0,052
-208,694	-200,000	0,011	0,110
-207,679	318,696	0,140	0,191
-206,665	49,758	-0,079	-0,054
-205,650	-90,439	0,025	-0,005
-204,636	-200,000	-0,022	0,124
-203,621	106,771	-0,056	0,048
-202,606	-131,063	-0,104	0,010
-201,592	105,284	0,094	-0,080
-200,577	-200,000	0,012	-0,051
-199,563	259,389	0,112	0,139
-198,548	800,000	0,039	-0,110
-197,533	229,154	0,057	-0,068
-196,519	-200,000	-0,012	-0,148
-195,504	-103,389	0,088	-0,015
-194,490	185,147	-0,117	0,126
-193,475	800,000	-0,005	0,013
-192,460	-200,000	0,004	-0,065
-191,446	-200,000	0,000	0,013
-190,431	-70,769	0,102	0,027
-189,417	81,534	0,096	0,075
-188,402	76,576	-0,072	-0,055
-187,387	-39,411	-0,061	-0,023
-186,373	-200,000	0,018	-0,139
-185,358	-26,075	-0,077	0,032
-184,344	-117,917	0,109	0,014
-183,329	-200,000	0,008	-0,037
-182,315	800,000	-0,012	-0,026
-181,300	-32,646	-0,078	0,031
-180,285	9,299	-0,094	-0,051
-179,271	-0,033	0,063	-0,032
-178,256	-200,000	0,003	-0,023
-177,242	-52,082	-0,079	0,026
-176,227	560,810	0,113	0,197
-175,212	-200,000	-0,016	0,075
-174,198	26,369	0,099	0,060
-173,183	-200,000	-0,013	0,051
-172,169	800,000	0,059	-0,158
-171,154	-9,703	0,075	-0,036
-170,139	800,000	0,023	0,071
-169,125	194,559	0,063	0,069
-168,110	-101,550	-0,025	-0,004
-167,096	-59,515	0,054	-0,017
-166,081	-0,719	0,181	0,092
-165,066	783,238	-0,046	-0,090
-164,052	79,286	-0,054	-0,042
-163,037	-103,236	-0,048	0,008
-162,023	12,628	-0,116	0,064
-161,008	-121,258	0,104	-0,012
-159,993	-158,232	0,038	-0,002
-158,979	-200,000	-0,002	-0,019
-157,964	800,000	0,028	-0,056
-156,950	-55,693	-0,041	0,013
-155,935	800,000	0,039	0,092
-154,920	-25,711	0,069	-0,029
-153,906	-200,000	-0,016	0,090
-152,891	-200,000	-0,003	-0,113
-151,877	-47,692	-0,145	-0,050
-150,862	-89,774	-0,051	-0,011
-149,847	-14,849	-0,035	-0,016
-148,833	-200,000	0,019	0,066
-147,818	-163,333	0,130	-0,004
-146,804	-200,000	-0,014	0,081
-145,789	-200,000	-0,003	-0,021
-144,775	-200,000	-0,002	0,052
-143,760	-119,988	-0,097	0,012
-142,745	800,000	0,025	-0,061
-141,731	-200,000	0,001	-0,020
-140,716	800,000	0,051	0,157
-139,702	800,000	0,066	0,136
-138,687	-200,000	-0,025	-0,179
-137,672	250,412	0,089	-0,109
-136,658	-81,919	-0,039	-0,009
-135,643	-200,000	0,005	0,071
-134,629	-6,479	-0,036	-0,018
-133,614	-200,000	-0,028	0,147
-132,599	-116,708	0,125	0,016
-131,585	-129,974	-0,080	-0,008
-130,570	136,590	-0,095	0,089
-129,556	-90,051	-0,126	-0,026
-128,541	-12,039	-0,038	0,018
-127,526	-131,628	0,132	-0,012
-126,512	-100,893	0,109	-0,019
-125,497	-89,673	0,087	-0,018
-124,483	144,042	0,090	0,086
-123,468	191,054	0,088	-0,095
-122,453	191,541	0,036	-0,038
-121,439	349,602	-0,033	-0,047
-120,424	800,000	-0,014	-0,031
-119,410	800,000	-0,012	-0,033
