DTS Sentinel unit serial number:	SN410029Multiplexer serial number:	ORYXHardware model number:	OX2-SRSoftware version number:	ORYX F/W v4,00 Oryx Data Collector v3.7.2.0data status	okinstallation	B6 Nyhavnadifferential loss correction	single-endedforward channel	channel 2reverse channel	N/Adate	2023/12/07time	13:15:08forward acquisition time	300,00reverse acquisition time	0,00gamma	499,1914k internal	0,3203k external	0,3203temperature offset calibration	1,0000default loss term (dB/km)	0,3820temperature slope calibration	1,0000multiplexer offset coefficient	1,0000multiplexer slope coefficient	1,0000fibre end	0,00T internal ref (°C)	11,58T ext. ref 1 (°C)	-1,93T ext. ref 2 (°C)	-1,93length (m)	temperature (°C)	Stokes	anti-Stokes-744,400	20,271	0,165	0,096
-743,385	-86,102	-0,243	-0,054
-742,371	800,000	0,077	0,158
-741,356	-44,305	-0,233	-0,085
-740,342	5,654	0,219	0,117
-739,327	-95,367	-0,378	0,073
-738,312	-200,000	-0,033	0,124
-737,298	-162,780	-0,391	0,014
-736,283	-200,000	0,043	0,155
-735,269	-73,744	-0,342	-0,090
-734,254	-200,000	0,019	0,085
-733,239	-53,027	-0,561	-0,186
-732,225	-96,261	0,302	0,058
-731,210	37,903	-0,058	0,037
-730,196	-155,102	-0,025	-0,001
-729,181	-200,000	0,020	0,070
-728,167	295,586	-0,044	-0,059
-727,152	-200,000	-0,035	0,114
-726,137	-25,522	-0,221	0,095
-725,123	-200,000	-0,021	-0,189
-724,108	132,031	-0,160	-0,150
-723,094	186,245	0,121	-0,131
-722,079	70,786	-0,164	0,123
-721,064	-78,731	-0,042	0,010
-720,050	41,415	-0,055	-0,036
-719,035	-124,396	-0,186	-0,021
-718,021	-88,625	0,044	-0,009
-717,006	-63,379	0,088	-0,026
-715,991	-167,660	-0,131	0,004
-714,977	800,000	-0,059	-0,127
-713,962	-200,000	-0,020	-0,139
-712,948	800,000	-0,070	-0,199
-711,933	94,254	-0,094	-0,077
-710,918	-128,425	0,118	0,012
-709,904	291,755	0,052	-0,069
-708,889	89,608	-0,078	-0,063
-707,875	-45,933	0,051	-0,018
-706,860	174,916	0,090	-0,095
-705,845	134,267	-0,100	-0,094
-704,831	190,565	0,031	0,034
-703,816	-200,000	-0,028	-0,138
-702,802	-200,000	-0,014	-0,080
-701,787	-101,148	-0,255	-0,045
-700,772	-115,165	-0,014	0,002
-699,758	447,605	0,013	-0,021
-698,743	229,005	0,029	0,034
-697,729	-200,000	0,011	-0,056
-696,714	103,106	-0,100	-0,085
-695,699	-200,000	-0,027	-0,100
-694,685	432,230	0,029	-0,046
-693,670	-127,831	-0,049	0,005
-692,656	-200,000	-0,000	-0,050
-691,641	654,240	-0,029	-0,055
-690,627	800,000	0,008	-0,024
-689,612	502,322	0,067	-0,112
-688,597	-8,771	0,122	-0,059
-687,583	11,493	-0,102	0,056
-686,568	-150,423	-0,108	-0,006
-685,554	-200,000	0,003	0,116
-684,539	800,000	-0,050	-0,144
-683,524	800,000	0,013	0,034
-682,510	182,787	0,095	0,102
-681,495	800,000	0,053	-0,109
-680,481	73,595	-0,245	0,186
-679,466	-200,000	-0,001	-0,181
-678,451	72,265	-0,036	0,027
-677,437	108,359	0,045	0,039
-676,422	-124,061	-0,087	0,010
-675,408	0,917	-0,015	-0,008
-674,393	-103,056	-0,060	-0,010
-673,378	-76,475	-0,074	0,019
-672,364	17,986	-0,059	-0,034
-671,349	-127,283	-0,061	-0,006
-670,335	-29,638	0,064	-0,026
-669,320	13,724	0,059	0,033
-668,305	-48,771	0,045	0,015
-667,291	163,677	-0,066	0,067
-666,276	-200,000	0,040	-0,179
-665,262	-200,000	-0,021	-0,102
-664,247	-200,000	-0,020	-0,103
-663,232	151,718	-0,079	-0,078
-662,218	119,678	0,129	-0,116
-661,203	220,220	-0,080	-0,093
-660,189	-200,000	-0,018	-0,100
-659,174	800,000	0,058	-0,147
-658,159	-102,818	-0,116	0,020
-657,145	-200,000	-0,006	-0,069
-656,130	362,877	-0,071	-0,104
-655,116	-200,000	-0,003	-0,010
-654,101	62,373	-0,065	-0,047
-653,086	-104,004	0,069	-0,012
-652,072	64,530	-0,075	0,055
-651,057	-157,818	-0,038	-0,002
-650,043	80,939	-0,099	-0,077
-649,028	-128,800	-0,074	0,007
-648,014	-111,746	-0,106	-0,015
-646,999	33,411	0,035	0,022
-645,984	-121,992	0,097	0,011
-644,970	800,000	-0,045	-0,104
-643,955	119,981	-0,047	-0,042
-642,941	-169,315	-0,025	0,001
-641,926	141,900	0,031	0,030
-640,911	130,317	-0,059	-0,055
-639,897	-107,625	0,048	-0,008
-638,882	333,535	-0,040	-0,056
-637,868	464,052	-0,040	0,065
-636,853	3,103	-0,166	0,087
-635,838	6,878	-0,130	-0,070
-634,824	-45,220	-0,129	0,046
-633,809	-164,125	-0,013	0,000
-632,795	67,409	0,072	0,053
-631,780	-25,208	-0,045	-0,019
-630,765	-86,276	-0,089	0,020
-629,751	-58,616	-0,038	-0,012
-628,736	383,298	-0,092	-0,137
-627,722	800,000	-0,032	-0,066
-626,707	91,605	0,042	-0,034
-625,692	171,628	-0,015	-0,016
-624,678	546,616	-0,078	-0,135
-623,663	42,288	0,056	-0,037
-622,649	800,000	0,068	-0,191
-621,634	-200,000	-0,012	0,067
-620,619	-44,045	-0,102	-0,037
-619,605	109,814	0,088	0,076
-618,590	320,316	0,060	0,083
-617,576	800,000	-0,027	0,077
-616,561	-10,837	-0,135	0,064
-615,546	173,809	0,039	0,041
-614,532	-200,000	0,003	-0,075
-613,517	-200,000	0,017	-0,140
-612,503	-75,475	-0,136	0,035
-611,488	-200,000	-0,001	-0,015
-610,474	-200,000	0,018	0,091
-609,459	-45,369	0,031	-0,011
-608,444	12,384	-0,055	-0,031
-607,430	695,071	-0,040	-0,076
-606,415	-199,752	-0,156	0,001
-605,401	403,988	0,060	0,092
-604,386	69,090	-0,030	0,022
-603,371	-200,000	-0,015	-0,148
-602,357	-109,064	-0,069	0,010
-601,342	800,000	-0,023	0,068
-600,328	-200,000	0,014	-0,098
-599,313	418,883	-0,003	-0,004
-598,298	-41,994	-0,180	0,066
-597,284	-134,825	0,107	-0,009
-596,269	146,958	-0,049	0,048
-595,255	-200,000	-0,021	0,111
-594,240	423,636	0,030	0,046
-593,225	215,122	-0,024	-0,027
-592,211	-143,381	-0,141	0,010
-591,196	800,000	-0,057	0,137
-590,182	-66,533	0,179	0,051
-589,167	302,596	0,091	0,122
-588,152	-72,354	0,039	-0,010
-587,138	-149,527	-0,048	0,003
-586,123	-200,000	0,007	0,028
-585,109	14,041	-0,184	-0,103
-584,094	375,424	-0,062	-0,091
-583,079	800,000	0,064	-0,152
-582,065	-43,285	-0,138	-0,050
-581,050	-118,882	0,161	0,020
-580,036	-33,863	-0,046	0,018
-579,021	-72,995	-0,043	-0,011
-578,006	82,276	-0,049	-0,038
-576,992	-200,000	-0,004	0,110
-575,977	73,439	0,071	-0,053
-574,963	313,107	0,088	0,120
-573,948	0,670	-0,130	-0,067
-572,934	-200,000	0,007	-0,064
-571,919	-10,196	0,095	-0,045
-570,904	-200,000	-0,044	-0,148
-569,890	573,318	-0,011	0,019
-568,875	216,510	0,056	-0,065
-567,861	-60,886	-0,094	-0,028
-566,846	800,000	-0,012	0,034
-565,831	23,996	0,052	0,031
-564,817	68,983	0,073	-0,054
-563,802	-200,000	0,001	-0,169
-562,788	800,000	-0,040	-0,107
-561,773	137,860	-0,087	-0,083
-560,758	-142,164	0,090	0,006
-559,744	-116,460	0,146	-0,019
-558,729	-30,511	-0,151	-0,061
-557,715	237,986	0,033	0,040
-556,700	-200,000	0,001	0,012
-555,685	61,921	-0,072	-0,052
-554,671	-200,000	0,021	-0,093
-553,656	174,814	0,032	-0,034
-552,642	553,788	-0,031	0,054
-551,627	-200,000	-0,004	-0,070
-550,612	-200,000	0,008	-0,031
-549,598	-51,361	-0,085	-0,029
-548,583	550,100	0,035	-0,061
-547,569	281,959	0,085	-0,110
-546,554	-200,000	-0,014	0,094
-545,539	-18,096	0,150	0,067
-544,525	800,000	0,014	-0,030
-543,510	-77,433	0,015	0,004
-542,496	-21,594	-0,197	0,086
-541,481	-65,132	-0,022	0,006
-540,466	376,299	0,106	-0,156
-539,452	800,000	-0,033	-0,094
-538,437	-200,000	-0,004	0,084
-537,423	-200,000	-0,043	-0,157
-536,408	-200,000	0,009	-0,100
-535,393	-200,000	-0,043	0,195
-534,379	183,986	-0,015	-0,016
-533,364	114,536	0,036	-0,032
-532,350	190,299	0,024	-0,026
-531,335	18,290	0,130	0,075
-530,321	-200,000	0,018	-0,203
-529,306	-200,000	-0,008	-0,038
-528,291	183,801	-0,078	-0,083
-527,277	303,235	-0,020	0,026
-526,262	-200,000	0,006	-0,068
-525,248	38,778	0,032	-0,021
-524,233	115,830	0,021	0,018
-523,218	800,000	-0,035	-0,086
-522,204	-135,114	-0,054	0,005
-521,189	800,000	0,048	-0,123
-520,175	800,000	-0,029	0,068
-519,160	-200,000	0,007	-0,110
-518,145	631,899	0,036	-0,065
-517,131	-200,000	0,027	-0,086
-516,116	-139,423	0,089	0,007
-515,102	-52,438	-0,130	0,043
-514,087	-200,000	0,003	0,086
-513,072	-200,000	0,035	-0,177
-512,058	539,052	0,053	-0,090
-511,043	-7,540	0,056	0,027
-510,029	-187,497	0,174	0,002
-509,014	353,192	-0,057	-0,081
-507,999	759,203	-0,081	0,160
-506,985	5,285	-0,178	0,094
-505,970	46,393	0,071	0,048
-504,956	-6,963	-0,098	-0,048
-503,941	397,050	0,012	-0,018
-502,926	-200,000	0,023	-0,091
-501,912	-58,294	-0,195	0,061
-500,897	-200,000	-0,005	-0,050
-499,883	800,000	-0,020	0,056
-498,868	-130,385	-0,030	0,003
-497,853	-200,000	-0,001	0,009
-496,839	-13,801	-0,014	0,006
-495,824	-200,000	-0,004	0,101
-494,810	800,000	-0,045	0,128
-493,795	-17,275	-0,165	0,074
-492,781	-68,083	0,088	0,025
-491,766	800,000	0,036	0,079
-490,751	800,000	-0,030	-0,065
-489,737	-82,495	0,075	-0,017
-488,722	-16,678	0,024	-0,011
-487,708	17,913	-0,037	0,021
-486,693	-200,000	0,007	0,029
-485,678	-200,000	-0,018	-0,083
-484,664	33,236	-0,090	0,056
-483,649	158,557	-0,077	0,077
-482,635	-200,000	0,010	0,140
-481,620	-200,000	0,006	-0,020
-480,605	-200,000	-0,122	0,000
-479,591	18,174	-0,062	-0,036
-478,576	-51,370	0,065	0,022
-477,562	-181,372	-0,078	-0,001
-476,547	260,825	-0,025	-0,031
-475,532	800,000	0,060	-0,163
-474,518	-102,298	0,123	0,021
-473,503	233,812	0,037	-0,044
-472,489	800,000	-0,042	0,114
-471,474	629,148	-0,070	-0,128
-470,459	-200,000	-0,022	-0,102
-469,445	800,000	0,037	-0,076
-468,430	-200,000	0,009	-0,150
-467,416	-200,000	-0,012	0,050
-466,401	-200,000	-0,028	-0,112
-465,386	535,867	-0,041	-0,069
-464,372	477,707	-0,046	-0,076
-463,357	-200,000	0,040	0,186
-462,343	800,000	-0,046	-0,114
-461,328	-200,000	0,000	0,016
-460,313	25,216	0,095	0,057
-459,299	71,733	0,079	0,059
-458,284	-200,000	0,037	0,196
-457,270	-23,730	-0,130	-0,056
-456,255	-96,540	-0,033	-0,006
-455,241	269,375	0,114	-0,144
-454,226	800,000	-0,074	-0,214
-453,211	-159,026	0,143	-0,006
-452,197	-200,000	-0,008	0,167
-451,182	73,991	0,063	0,047
-450,168	-123,674	0,049	-0,005
-449,153	186,358	-0,071	-0,076
-448,138	-200,000	0,017	-0,196
-447,124	-17,980	0,072	-0,032
-446,109	321,947	-0,034	0,047
-445,095	-57,035	-0,047	0,015
-444,080	-3,319	0,025	-0,012
-443,065	-200,000	-0,028	0,090
-442,051	116,040	0,035	0,031
-441,036	-200,000	-0,021	0,068
-440,022	-44,962	-0,095	-0,034
-439,007	-130,489	-0,096	0,009
-437,992	133,128	0,034	-0,031
-436,978	-3,776	-0,060	0,030
-435,963	-45,093	0,069	0,025
-434,949	108,987	-0,051	0,044
-433,934	185,231	-0,144	-0,153
-432,919	22,803	0,167	-0,098
-431,905	-73,171	0,123	-0,032
-430,890	152,644	-0,032	-0,031
-429,876	-136,393	-0,039	-0,003
-428,861	800,000	0,015	0,041
-427,846	-200,000	0,006	0,099
-426,832	190,683	0,010	0,011
-425,817	-69,837	0,036	-0,010
-424,803	-21,977	0,095	0,041
-423,788	-85,345	0,095	-0,021
-422,773	227,615	0,045	0,052
-421,759	-200,000	0,012	0,141
-420,744	-114,251	0,052	-0,007
-419,730	512,813	-0,006	0,010
-418,715	800,000	0,017	0,044
-417,701	99,576	-0,070	-0,058
-416,686	800,000	-0,007	0,014
-415,671	22,693	0,071	0,041
-414,657	67,029	-0,099	0,072
-413,642	701,012	0,025	0,047
-412,628	-64,495	-0,152	-0,044
-411,613	-159,737	0,100	0,004
-410,598	-200,000	-0,009	0,100
-409,584	-200,000	0,011	0,061
-408,569	-200,000	-0,023	0,081
-407,555	237,400	0,129	0,153
-406,540	-88,031	-0,038	0,008
-405,525	178,713	-0,022	-0,024
-404,511	800,000	0,021	-0,050
-403,496	36,176	0,020	-0,013
-402,482	-72,426	0,060	0,016
-401,467	-200,000	0,005	-0,065
-400,452	511,194	0,045	0,076
-399,438	60,770	-0,060	0,042
-398,423	81,967	-0,026	-0,020
-397,409	99,310	-0,099	-0,082
-396,394	655,767	-0,084	-0,155
-395,379	7,749	0,140	0,075
-394,365	-200,000	0,009	0,072
-393,350	-38,843	0,068	0,026
-392,336	-147,051	0,118	-0,007
-391,321	-200,000	-0,007	-0,029
-390,306	-31,626	-0,081	0,033
-389,292	445,171	-0,066	-0,104
-388,277	800,000	-0,023	-0,055
-387,263	-86,221	0,063	0,014
-386,248	800,000	0,063	0,168
-385,233	-200,000	0,001	0,122
-384,219	111,249	-0,104	-0,090
-383,204	98,626	0,039	-0,033
-382,190	-27,504	-0,021	-0,009
-381,175	-200,000	0,051	0,212
-380,160	-28,692	0,194	-0,079
-379,146	-100,370	-0,065	-0,011
-378,131	612,573	0,033	0,059
-377,117	-44,521	-0,137	0,049
-376,102	-105,956	-0,133	0,021
-375,088	190,737	0,071	-0,077
-374,073	197,080	-0,070	0,076
-373,058	200,405	0,098	0,108
-372,044	189,568	0,042	-0,045
-371,029	-200,000	-0,017	0,079
-370,015	-200,000	0,006	0,068
-369,000	92,735	-0,058	0,047
-367,985	-14,238	-0,039	0,018
-366,971	-200,000	-0,031	0,133
-365,956	218,435	0,003	0,004
-364,942	179,219	-0,052	0,054
-363,927	-200,000	0,027	-0,091
-362,912	-200,000	0,005	-0,114
-361,898	262,875	0,027	-0,034
-360,883	800,000	0,007	0,021
-359,869	-200,000	-0,014	-0,153
-358,854	-187,816	-0,156	0,001
-357,839	217,026	0,112	0,127
-356,825	-40,507	0,039	-0,014
-355,810	302,850	0,064	0,084
-354,796	-142,117	-0,208	0,015
-353,781	50,571	0,059	-0,040
-352,766	184,535	0,019	0,020
-351,752	139,644	0,056	-0,053
-350,737	-78,659	-0,060	-0,014
-349,723	7,836	0,061	0,033
-348,708	-110,933	0,193	0,028
-347,693	206,649	-0,104	0,116
-346,679	439,556	-0,063	0,098
-345,664	111,702	0,039	-0,033
-344,650	-20,385	0,134	0,059
-343,635	-200,000	-0,004	-0,093
-342,620	69,884	0,130	-0,096
-341,606	78,053	0,019	-0,015
-340,591	800,000	0,028	-0,065
-339,577	213,383	0,086	0,098
-338,562	457,156	-0,079	-0,126
-337,548	-200,000	-0,003	-0,020
-336,533	-25,173	0,058	0,025
-335,518	-7,451	0,119	0,057
-334,504	241,852	0,016	0,019
-333,489	-58,754	-0,117	0,036
-332,475	800,000	0,057	0,118
-331,460	75,636	-0,168	-0,127
-330,445	-86,459	0,056	0,012
-329,431	-32,684	0,055	0,022
-328,416	84,825	0,092	-0,072
-327,402	-70,863	0,057	-0,015
-326,387	97,376	-0,068	0,056
-325,372	-67,641	0,102	-0,028
-324,358	189,200	0,032	-0,034
-323,343	-200,000	-0,002	-0,163
-322,329	648,270	0,018	0,033
-321,314	-84,075	0,034	-0,008
-320,299	304,266	0,136	0,181
-319,285	-60,153	-0,020	-0,006
-318,270	130,535	-0,077	-0,071
-317,256	-4,461	0,061	-0,030
-316,241	-200,000	0,004	0,101
-315,226	-36,634	0,160	0,061
-314,212	-200,000	0,006	0,023
-313,197	-53,529	-0,053	0,017
-312,183	800,000	-0,043	-0,087
-311,168	-145,066	-0,039	-0,002
-310,153	-200,000	0,020	-0,118
-309,139	-35,784	-0,227	-0,088
-308,124	-99,109	0,166	0,030
-307,110	223,789	0,105	0,121
-306,095	-200,000	-0,020	0,105
-305,080	795,694	-0,037	0,073
-304,066	-55,007	-0,040	-0,013
-303,051	800,000	-0,056	-0,144
-302,037	-112,098	0,115	-0,016
-301,022	142,895	0,030	-0,028
-300,008	-5,107	0,146	-0,072
-298,993	167,319	-0,053	-0,054
-297,978	-34,887	0,115	-0,044
-296,964	154,633	-0,044	-0,043
-295,949	79,809	-0,012	0,009
-294,935	534,408	0,032	-0,054
-293,920	66,494	0,080	-0,058
-292,905	315,437	0,023	0,031
-291,891	-200,000	0,009	0,056
-290,876	800,000	0,035	0,103
-289,862	-93,450	-0,050	-0,010
-288,847	800,000	-0,048	-0,095
-287,832	-200,000	0,018	-0,124
-286,818	7,871	0,033	0,018
-285,803	-200,000	-0,005	-0,024
-284,789	-115,637	0,121	-0,016
-283,774	-200,000	0,024	0,076
-282,759	-75,819	0,038	0,010
-281,745	691,072	-0,023	0,044
-280,730	800,000	-0,036	0,083
-279,716	-20,123	0,024	-0,011
-278,701	102,523	0,070	0,058
-277,686	-130,182	0,076	-0,007
-276,672	28,692	-0,069	0,041
-275,657	79,029	-0,136	0,104
-274,643	800,000	-0,036	-0,087
-273,628	196,108	0,013	0,014
-272,613	800,000	0,053	-0,121
-271,599	256,636	0,075	-0,092
-270,584	-200,000	0,034	0,147
-269,570	-200,000	0,014	0,135
-268,555	50,006	-0,113	-0,076
-267,540	423,173	-0,043	0,066
-266,526	800,000	-0,036	0,076
-265,511	-200,000	0,009	0,138
-264,497	673,311	-0,076	0,142
-263,482	42,109	-0,069	-0,045
-262,467	307,578	0,062	0,083
-261,453	-69,402	-0,063	-0,017
-260,438	5,658	-0,137	0,072
-259,424	19,575	-0,066	0,037
-258,409	287,305	0,014	0,018
-257,395	394,978	0,018	0,026
-256,380	-200,000	0,019	-0,122
-255,365	156,669	0,071	-0,070
-254,351	81,095	0,090	-0,069
-253,336	-85,123	-0,074	-0,016
-252,322	-200,000	-0,012	0,038
-251,307	-31,187	0,044	0,018
-250,292	416,301	0,044	0,068
-249,278	131,121	0,063	0,058
-248,263	179,529	-0,018	-0,019
-247,249	-200,000	0,004	0,068
-246,234	-54,819	0,096	-0,031
-245,219	-200,000	0,007	-0,078
-244,205	500,954	0,073	-0,121
-243,190	-171,041	-0,045	-0,001
-242,176	302,755	0,055	-0,073
-241,161	-53,244	0,016	-0,005
-240,146	-200,000	0,013	-0,054
-239,132	-200,000	0,019	0,083
-238,117	-37,371	-0,234	-0,089
-237,103	97,083	0,120	0,098
-236,088	20,774	0,095	0,054
-235,073	97,270	-0,032	-0,026
-234,059	-71,605	-0,046	-0,012
-233,044	402,742	0,131	0,197
-232,030	187,795	-0,029	0,031
-231,015	47,064	-0,163	-0,108
-230,000	-21,288	-0,135	0,058
-228,986	5,780	-0,040	0,021
-227,971	142,069	0,066	0,062
-226,957	188,010	0,041	-0,043
-225,942	23,176	0,045	0,026
-224,927	-200,000	-0,023	0,086
-223,913	55,113	0,023	0,016
-222,898	16,314	-0,074	-0,042
-221,884	-119,193	-0,050	0,006
-220,869	-200,000	0,016	-0,058
-219,855	800,000	0,018	-0,043
-218,840	-200,000	-0,005	0,088
-217,825	800,000	0,004	-0,009
-216,811	-75,390	0,075	0,019
-215,796	-55,728	-0,013	0,004
-214,782	-72,988	0,144	0,037
-213,767	-84,866	0,106	0,023
-212,752	92,814	0,081	-0,065
-211,738	399,195	0,062	0,092
-210,723	-200,000	-0,008	0,043
-209,709	-77,045	-0,132	0,033
-208,694	800,000	-0,008	0,023
-207,679	59,956	0,076	0,053
-206,665	46,630	-0,092	0,061
-205,650	311,446	0,060	-0,080
-204,636	57,586	0,060	0,042
-203,621	-98,157	-0,076	0,014
-202,606	-59,156	-0,051	-0,015
-201,592	58,728	-0,094	-0,066
-200,577	-154,059	-0,059	-0,003
-199,563	-200,000	0,025	0,132
-198,548	4,327	0,117	0,061
-197,533	-200,000	-0,031	0,138
-196,519	631,808	-0,069	0,124
-195,504	759,926	0,047	0,091
-194,490	461,621	-0,039	-0,061
-193,475	-89,973	-0,083	-0,017
-192,460	-200,000	-0,009	-0,064
-191,446	-87,312	0,094	-0,020
-190,431	71,489	0,070	0,051
-189,417	-200,000	0,003	-0,019
-188,402	-13,782	-0,054	0,025
-187,387	-10,091	-0,098	0,046
-186,373	-200,000	0,007	0,120
-185,358	41,605	-0,075	0,048
-184,344	207,329	0,071	0,079
-183,329	17,211	-0,033	-0,019
-182,315	-200,000	0,007	-0,029
-181,300	800,000	-0,042	-0,103
-180,285	29,150	0,118	-0,071
-179,271	-200,000	-0,005	-0,126
-178,256	-48,141	0,031	0,011
-177,242	-114,976	0,204	0,027
-176,227	-200,000	-0,001	0,058
-175,212	59,302	0,037	-0,026
-174,198	-200,000	-0,001	0,011
-173,183	-200,000	0,011	0,047
-172,169	800,000	-0,075	-0,156
-171,154	-200,000	-0,001	-0,100
-170,139	291,326	0,076	-0,098
-169,125	-31,966	-0,120	-0,048
-168,110	130,191	0,068	-0,062
-167,096	-200,000	0,029	-0,098
-166,081	-59,093	-0,022	0,007
-165,066	250,412	-0,058	-0,070
-164,052	13,436	0,046	-0,025
-163,037	-200,000	-0,007	0,098
-162,023	-59,295	-0,038	-0,012
-161,008	-200,000	0,017	0,087
-159,993	160,003	0,154	0,153
-158,979	359,192	-0,042	0,060
-157,964	43,880	-0,023	0,015
-156,950	228,886	0,076	0,089
-155,935	39,826	0,054	0,034
-154,920	201,704	0,014	-0,015
-153,906	72,974	0,086	0,064
-152,891	200,933	-0,077	0,084
-151,877	194,353	-0,042	-0,045
-150,862	-200,000	-0,012	0,101
-149,847	800,000	0,035	0,105
-148,833	270,469	0,096	-0,121
-147,818	71,636	0,053	0,039
-146,804	361,000	-0,047	-0,068
-145,789	217,329	-0,044	0,050
-144,775	100,167	-0,030	0,024
-143,760	50,389	-0,078	-0,052
-142,745	-91,347	-0,041	-0,008
-141,731	9,225	-0,066	-0,036
-140,716	-8,775	-0,104	0,049
-139,702	63,145	0,050	0,036
-138,687	-200,000	-0,019	0,118
-137,672	800,000	0,006	0,015
-136,658	25,352	-0,082	-0,048
-135,643	-103,096	-0,064	0,011
-134,629	22,016	0,049	-0,028
-133,614	201,985	0,067	-0,074
-132,599	59,715	-0,055	0,039
-131,585	-200,000	0,032	0,120
-130,570	505,246	-0,050	-0,082
-129,556	800,000	-0,013	0,036
-128,541	7,555	0,071	0,038
-127,526	136,381	0,049	-0,045
-126,512	-200,000	0,022	0,105
-125,497	211,457	0,089	0,100
-124,483	800,000	-0,024	-0,067
-123,468	-200,000	0,002	-0,107
-122,453	-43,890	0,102	-0,036
-121,439	150,234	-0,078	0,075
-120,424	560,410	0,039	0,067
-119,410	76,860	0,077	0,058
-118,395	680,309	0,066	0,122
