DTS Sentinel unit serial number:	SN410029Multiplexer serial number:	ORYXHardware model number:	OX2-SRSoftware version number:	ORYX F/W v4,00 Oryx Data Collector v3.7.2.0data status	okinstallation	B6 Nyhavnadifferential loss correction	single-endedforward channel	channel 2reverse channel	N/Adate	2023/12/10time	03:40:08forward acquisition time	300,00reverse acquisition time	0,00gamma	499,1914k internal	0,3125k external	0,3125temperature offset calibration	1,0000default loss term (dB/km)	0,3820temperature slope calibration	1,0000multiplexer offset coefficient	1,0000multiplexer slope coefficient	1,0000fibre end	0,00T internal ref (°C)	22,05T ext. ref 1 (°C)	5,99T ext. ref 2 (°C)	5,96length (m)	temperature (°C)	Stokes	anti-Stokes-744,400	75,323	0,112	-0,088
-743,385	800,000	-0,089	0,192
-742,371	236,340	0,042	-0,051
-741,356	-89,337	-0,213	-0,046
-740,342	306,482	0,100	0,138
-739,327	-0,570	-0,221	0,116
-738,312	320,800	0,027	-0,038
-737,298	-55,215	-0,230	0,077
-736,283	-200,000	0,019	-0,120
-735,269	172,611	-0,091	0,098
-734,254	-108,382	-0,070	0,011
-733,239	-3,117	-0,403	-0,209
-732,225	-200,000	-0,013	-0,099
-731,210	134,701	0,061	-0,059
-730,196	800,000	-0,057	0,126
-729,181	800,000	0,009	0,029
-728,167	800,000	-0,032	-0,086
-727,152	213,454	-0,046	0,054
-726,137	52,672	-0,086	0,061
-725,123	189,112	0,092	-0,103
-724,108	800,000	-0,045	-0,144
-723,094	-169,355	-0,041	-0,001
-722,079	800,000	-0,004	0,013
-721,064	100,712	-0,039	-0,034
-720,050	770,910	0,030	-0,061
-719,035	-25,972	-0,060	-0,026
-718,021	-98,958	-0,104	0,019
-717,006	-200,000	0,003	-0,090
-715,991	-96,225	0,073	-0,014
-714,977	623,953	-0,057	-0,107
-713,962	-200,000	0,012	-0,216
-712,948	-135,407	0,101	0,009
-711,933	105,079	-0,057	-0,050
-710,918	-68,251	0,062	-0,018
-709,904	9,990	0,061	0,035
-708,889	39,872	0,058	0,038
-707,875	222,961	-0,058	-0,070
-706,860	317,549	0,017	0,024
-705,845	584,032	-0,032	0,059
-704,831	-200,000	0,025	0,100
-703,816	800,000	0,054	-0,117
-702,802	-200,000	-0,015	0,093
-701,787	57,154	-0,085	-0,061
-700,772	497,800	-0,056	0,096
-699,758	206,984	-0,035	0,040
-698,743	-200,000	-0,013	0,062
-697,729	668,647	-0,013	0,026
-696,714	-200,000	-0,004	-0,016
-695,699	96,551	-0,086	-0,073
-694,685	-68,469	-0,090	-0,026
-693,670	800,000	-0,020	0,049
-692,656	-200,000	-0,005	0,042
-691,641	60,166	0,076	-0,056
-690,627	109,867	-0,089	-0,079
-689,612	12,754	-0,120	0,069
-688,597	-200,000	-0,009	-0,090
-687,583	-200,000	-0,013	-0,079
-686,568	-200,000	-0,026	-0,097
-685,554	553,016	0,060	-0,108
-684,539	800,000	0,024	0,052
-683,524	-200,000	0,009	0,061
-682,510	-200,000	0,024	0,118
-681,495	20,158	-0,135	-0,080
-680,481	-200,000	0,014	-0,088
-679,466	32,926	-0,085	-0,055
-678,451	800,000	0,031	-0,076
-677,437	92,187	0,061	-0,051
-676,422	3,414	-0,069	0,037
-675,408	144,946	0,048	-0,047
-674,393	-12,014	-0,057	-0,028
-673,378	357,417	0,048	-0,072
-672,364	100,748	-0,049	0,042
-671,349	239,809	0,098	-0,122
-670,335	343,261	-0,022	0,032
-669,320	-60,150	-0,129	-0,041
-668,305	800,000	-0,051	0,137
-667,291	333,722	-0,047	0,068
-666,276	-200,000	0,012	-0,062
-665,262	-74,968	-0,051	-0,013
-664,247	-200,000	0,001	0,168
-663,232	-200,000	0,012	0,086
-662,218	-200,000	0,009	-0,031
-661,203	-200,000	0,001	-0,047
-660,189	800,000	0,040	0,092
-659,174	-200,000	0,023	-0,084
-658,159	-200,000	-0,008	-0,076
-657,145	-200,000	-0,027	-0,171
-656,130	-110,572	0,160	-0,024
-655,116	-178,247	0,053	-0,001
-654,101	-200,000	-0,021	0,122
-653,086	97,086	-0,092	-0,078
-652,072	800,000	-0,062	-0,139
-651,057	451,854	0,084	-0,139
-650,043	-200,000	-0,034	-0,123
-649,028	-200,000	-0,009	0,076
-648,014	668,554	-0,023	0,045
-646,999	12,902	0,081	0,046
-645,984	800,000	0,069	-0,193
-644,970	-7,128	0,150	-0,075
-643,955	521,179	-0,058	0,102
-642,941	422,060	0,003	0,005
-641,926	285,379	0,032	0,043
-640,911	759,218	0,073	0,148
-639,897	-82,943	0,170	0,040
-638,882	-200,000	0,012	-0,115
-637,868	-200,000	0,028	0,097
-636,853	41,559	-0,059	-0,040
-635,838	-200,000	0,002	-0,107
-634,824	468,699	0,032	-0,054
-633,809	-41,514	0,029	0,011
-632,795	-63,558	0,168	0,051
-631,780	800,000	-0,050	-0,136
-630,765	-96,877	-0,121	-0,023
-629,751	-200,000	0,006	0,025
-628,736	-50,845	-0,087	-0,030
-627,722	480,838	0,040	0,067
-626,707	63,334	0,132	0,098
-625,692	-200,000	0,002	0,053
-624,678	134,557	-0,058	0,056
-623,663	80,467	-0,154	0,123
-622,649	-200,000	0,011	-0,042
-621,634	31,503	-0,104	-0,066
-620,619	-200,000	0,011	-0,121
-619,605	800,000	0,025	0,064
-618,590	-143,828	-0,117	0,008
-617,576	114,669	0,147	-0,133
-616,561	-94,950	-0,086	0,017
-615,546	-200,000	0,014	-0,076
-614,532	800,000	0,023	-0,050
-613,517	386,916	-0,092	-0,142
-612,503	346,492	0,058	0,085
-611,488	-122,693	0,097	0,012
-610,474	-200,000	-0,007	-0,128
-609,459	800,000	-0,020	-0,053
-608,444	-146,028	-0,049	-0,003
-607,430	-153,674	-0,163	0,008
-606,415	-200,000	0,005	-0,045
-605,401	-95,698	0,080	-0,016
-604,386	-30,810	0,043	-0,018
-603,371	60,462	-0,051	0,037
-602,357	800,000	-0,019	0,046
-601,342	301,683	-0,090	-0,123
-600,328	-200,000	-0,004	-0,113
-599,313	-47,860	-0,191	-0,068
-598,298	407,124	-0,060	0,095
-597,284	800,000	0,071	0,199
-596,269	-41,235	-0,060	-0,023
-595,255	107,247	-0,037	0,033
-594,240	-200,000	0,016	-0,057
-593,225	98,135	-0,045	-0,039
-592,211	8,920	-0,038	-0,021
-591,196	-43,433	-0,100	0,037
-590,182	263,809	0,021	-0,027
-589,167	65,026	0,125	-0,093
-588,152	146,688	0,113	-0,112
-587,138	165,284	0,060	0,063
-586,123	-0,099	-0,018	0,009
-585,109	-4,710	-0,191	-0,097
-584,094	214,963	0,056	0,065
-583,079	52,951	-0,107	-0,075
-582,065	8,029	0,097	-0,054
-581,050	191,263	-0,019	0,022
-580,036	-103,061	-0,050	-0,009
-579,021	-28,077	0,088	0,037
-578,006	-200,000	0,010	0,062
-576,992	53,090	-0,089	0,063
-575,977	-56,971	-0,061	-0,020
-574,963	64,193	-0,036	-0,027
-573,948	800,000	-0,055	0,117
-572,934	185,382	0,014	-0,016
-571,919	-27,310	-0,131	0,056
-570,904	-130,355	-0,022	0,002
-569,890	-200,000	0,005	-0,091
-568,875	-88,423	0,111	0,024
-567,861	631,575	0,039	0,073
-566,846	-200,000	0,014	0,142
-565,831	800,000	-0,020	0,058
-564,817	800,000	0,064	-0,175
-563,802	-84,661	-0,053	-0,012
-562,788	-139,955	0,174	0,013
-561,773	800,000	0,068	0,145
-560,758	800,000	0,046	0,147
-559,744	-22,502	0,110	0,049
-558,729	-200,000	-0,008	0,107
-557,715	800,000	0,029	-0,062
-556,700	-200,000	-0,038	-0,214
-555,685	-64,811	-0,131	-0,039
-554,671	-200,000	-0,019	0,076
-553,656	234,509	0,037	0,046
-552,642	704,865	0,018	0,036
-551,627	-200,000	0,042	-0,141
-550,612	193,190	0,083	-0,092
-549,598	85,806	-0,078	-0,063
-548,583	614,233	0,047	-0,087
-547,569	-97,831	0,008	-0,002
-546,554	49,956	-0,044	0,031
-545,539	26,868	-0,144	0,089
-544,525	-200,000	-0,010	0,108
-543,510	5,262	-0,143	-0,078
-542,496	-96,205	0,104	-0,020
-541,481	800,000	-0,033	0,088
-540,466	-31,705	0,040	0,017
-539,452	-200,000	-0,004	0,120
-538,437	47,121	0,087	0,060
-537,423	-200,000	0,025	-0,089
-536,408	-200,000	0,003	-0,034
-535,393	-54,965	-0,139	-0,046
-534,379	-50,053	0,102	0,035
-533,364	-200,000	-0,017	-0,094
-532,350	-200,000	0,037	0,121
-531,335	-200,000	-0,005	0,080
-530,321	336,615	0,041	0,059
-529,306	85,425	-0,037	-0,030
-528,291	3,230	-0,024	-0,013
-527,277	-161,400	0,085	-0,003
-526,262	173,318	0,015	-0,016
-525,248	261,960	0,103	0,132
-524,233	-31,982	0,185	0,076
-523,218	460,169	-0,063	0,105
-522,204	-200,000	-0,005	0,118
-521,189	233,560	0,055	0,067
-520,175	-26,132	-0,100	-0,043
-519,160	40,950	0,052	-0,035
-518,145	101,776	0,112	0,096
-517,131	401,303	-0,064	-0,100
-516,116	177,319	0,035	0,038
-515,102	84,533	0,023	-0,018
-514,087	-200,000	0,007	-0,044
-513,072	93,840	-0,052	0,043
-512,058	-150,893	0,063	-0,003
-511,043	-101,753	0,045	-0,008
-510,029	386,630	-0,058	0,089
-509,014	99,434	0,071	-0,060
-507,999	69,768	0,099	0,075
-506,985	-200,000	-0,003	-0,057
-505,970	5,603	0,110	-0,060
-504,956	-200,000	0,012	0,045
-503,941	329,776	0,030	0,043
-502,926	800,000	-0,015	-0,048
-501,912	-124,856	-0,055	0,006
-500,897	-200,000	0,004	-0,053
-499,883	-200,000	-0,011	-0,132
-498,868	800,000	-0,009	0,020
-497,853	-54,003	0,146	-0,049
-496,839	800,000	0,010	-0,023
-495,824	-33,356	0,020	0,008
-494,810	-200,000	-0,013	0,061
-493,795	-200,000	0,041	-0,152
-492,781	273,787	-0,043	-0,056
-491,766	217,933	-0,022	-0,026
-490,751	-200,000	0,001	-0,102
-489,737	-130,073	0,040	-0,004
-488,722	-200,000	0,021	-0,115
-487,708	-7,512	-0,104	0,052
-486,693	41,159	-0,101	0,067
-485,678	800,000	-0,020	0,055
-484,664	123,306	-0,073	0,068
-483,649	-200,000	0,023	0,117
-482,635	1,106	0,114	-0,060
-481,620	-76,079	-0,027	0,007
-480,605	209,484	0,021	-0,024
-479,591	710,175	-0,065	0,127
-478,576	-200,000	-0,012	0,072
-477,562	393,502	-0,068	-0,105
-476,547	3,920	0,107	-0,058
-475,532	170,904	-0,167	0,176
-474,518	165,736	-0,071	0,074
-473,503	-5,881	0,137	0,069
-472,489	-200,000	-0,053	0,177
-471,474	29,365	0,012	0,008
-470,459	800,000	0,016	-0,048
-469,445	-73,220	-0,155	-0,042
-468,430	-96,495	0,075	0,015
-467,416	-200,000	-0,003	0,086
-466,401	-119,297	0,145	0,018
-465,386	-91,491	-0,129	-0,027
-464,372	223,185	-0,068	-0,081
-463,357	-200,000	-0,027	0,129
-462,343	-66,521	-0,150	0,044
-461,328	391,557	0,022	0,033
-460,313	-200,000	0,022	0,089
-459,299	800,000	0,012	0,026
-458,284	-200,000	0,017	0,069
-457,270	800,000	-0,043	-0,113
-456,255	-200,000	0,016	-0,052
-455,241	-200,000	-0,035	-0,000
-454,226	-30,459	0,015	-0,006
-453,211	170,287	-0,027	-0,029
-452,197	-119,884	0,075	-0,009
-451,182	-70,047	-0,029	0,008
-450,168	-135,684	0,022	-0,002
-449,153	-200,000	0,020	0,104
-448,138	585,626	0,022	0,040
-447,124	800,000	-0,051	-0,111
-446,109	-111,889	0,075	-0,011
-445,095	-94,975	0,035	0,007
-444,080	800,000	-0,023	-0,051
-443,065	303,532	-0,061	-0,084
-442,051	-133,230	0,055	0,005
-441,036	304,390	-0,036	-0,049
-440,022	87,517	-0,051	0,042
-439,007	554,845	0,091	0,162
-437,992	-118,035	0,122	-0,016
-436,978	-10,020	0,074	0,036
-435,963	-106,394	-0,157	0,026
-434,949	40,179	0,047	0,031
-433,934	-11,989	-0,064	-0,031
-432,919	-150,299	0,089	-0,005
-431,905	565,377	0,083	-0,149
-430,890	-129,132	-0,099	-0,010
-429,876	12,151	0,107	-0,061
-428,861	-131,954	0,107	0,010
-427,846	686,368	0,043	0,083
-426,832	800,000	-0,039	-0,111
-425,817	-73,507	-0,050	-0,013
-424,803	303,776	0,047	0,064
-423,788	137,026	0,106	0,102
-422,773	-111,307	-0,105	0,016
-421,759	112,183	0,044	0,039
-420,744	333,745	-0,022	-0,032
-419,730	25,165	-0,135	-0,082
-418,715	174,488	-0,073	-0,078
-417,701	-100,609	-0,150	0,027
-416,686	-16,961	0,048	0,022
-415,671	-42,902	0,101	0,037
-414,657	172,951	0,111	-0,118
-413,642	796,963	0,037	0,075
-412,628	-7,712	0,056	0,028
-411,613	-75,407	0,071	-0,019
-410,598	210,695	-0,032	0,037
-409,584	141,012	0,120	0,117
-408,569	-93,338	0,087	0,018
-407,555	572,960	-0,025	-0,044
-406,540	166,545	0,023	0,024
-405,525	-200,000	0,003	0,076
-404,511	197,597	-0,092	0,104
-403,496	336,733	0,042	-0,060
-402,482	-25,154	-0,080	-0,035
-401,467	800,000	0,026	-0,056
-400,452	44,467	0,117	0,079
-399,438	-36,339	-0,063	-0,025
-398,423	51,899	0,028	-0,019
-397,409	-26,458	-0,126	-0,054
-396,394	-200,000	-0,028	-0,168
-395,379	-105,744	-0,079	-0,013
-394,365	-125,254	0,057	0,006
-393,350	800,000	-0,034	0,082
-392,336	104,898	0,061	-0,053
-391,321	-23,508	-0,067	0,030
-390,306	-115,886	0,046	0,006
-389,292	-155,442	-0,112	0,005
-388,277	-25,062	-0,194	-0,084
-387,263	-25,628	-0,061	0,027
-386,248	-61,116	0,066	0,020
-385,233	453,946	0,050	-0,082
-384,219	-200,000	0,002	-0,078
-383,204	-118,484	-0,033	0,004
-382,190	154,297	0,027	-0,027
-381,175	52,172	0,085	-0,059
-380,160	504,468	0,014	-0,024
-379,146	-200,000	-0,001	0,169
-378,131	115,931	0,080	0,072
-377,117	-200,000	0,003	0,054
-376,102	-51,951	-0,089	-0,030
-375,088	-200,000	0,005	-0,110
-374,073	-9,617	-0,070	-0,034
-373,058	64,664	0,095	-0,070
-372,044	800,000	-0,024	0,067
-371,029	-200,000	0,004	0,016
-370,015	-111,087	0,133	0,020
-369,000	312,957	-0,062	-0,086
-367,985	-101,990	-0,126	-0,022
-366,971	545,890	0,039	0,068
-365,956	-57,006	0,054	0,017
-364,942	-200,000	-0,023	0,090
-363,927	206,820	0,070	0,080
-362,912	-200,000	0,019	0,104
-361,898	151,427	-0,055	-0,055
-360,883	382,283	0,032	-0,049
-359,869	122,292	-0,030	-0,027
-358,854	800,000	-0,020	0,057
-357,839	-122,107	0,164	-0,020
-356,825	-200,000	0,035	-0,251
-355,810	-170,905	-0,044	0,001
-354,796	675,053	0,041	-0,078
-353,781	-200,000	-0,027	-0,146
-352,766	227,359	0,166	-0,199
-351,752	-59,096	-0,136	0,043
-350,737	796,184	-0,027	0,055
-349,723	-87,930	-0,195	0,043
-348,708	-65,495	-0,017	-0,005
-347,693	-102,943	-0,117	-0,020
-346,679	157,576	-0,069	-0,070
-345,664	346,476	-0,034	0,049
-344,650	-5,818	-0,107	-0,053
-343,635	73,402	0,024	0,018
-342,620	80,952	0,182	-0,144
-341,606	125,651	0,020	0,019
-340,591	-200,000	-0,014	-0,114
-339,577	-200,000	0,005	-0,120
-338,562	800,000	-0,044	-0,114
-337,548	142,715	0,043	0,041
-336,533	-200,000	0,007	0,101
-335,518	800,000	-0,051	0,144
-334,504	-108,980	0,148	0,023
-333,489	-87,639	-0,140	-0,031
-332,475	25,259	0,048	0,029
-331,460	169,356	-0,139	-0,145
-330,445	-67,450	0,018	0,005
-329,431	442,092	0,136	0,219
-328,416	8,638	0,020	-0,011
-327,402	77,570	0,060	0,047
-326,387	-70,683	-0,120	0,033
-325,372	-200,000	-0,035	0,133
-324,358	253,059	-0,149	0,186
-323,343	-200,000	-0,003	-0,092
-322,329	200,274	0,084	0,094
-321,314	800,000	-0,034	0,089
-320,299	-112,021	0,082	-0,012
-319,285	-0,850	-0,062	0,032
-318,270	-95,115	-0,037	-0,007
-317,256	800,000	-0,065	-0,163
-316,241	-200,000	-0,001	0,012
-315,226	578,755	-0,053	-0,095
-314,212	-149,289	0,138	-0,008
-313,197	-118,860	0,227	-0,029
-312,183	-143,463	-0,059	-0,004
-311,168	203,249	-0,010	0,011
-310,153	50,817	-0,131	-0,090
-309,139	158,614	-0,135	-0,137
-308,124	800,000	-0,047	0,097
-307,110	579,323	0,040	0,072
-306,095	507,244	0,030	0,052
-305,080	-200,000	-0,022	0,107
-304,066	426,371	0,040	-0,064
-303,051	-29,696	-0,127	0,053
-302,037	110,648	-0,085	-0,075
-301,022	3,552	0,081	-0,043
-300,008	-200,000	-0,001	0,013
-298,993	-164,041	0,085	-0,003
-297,978	522,805	-0,038	0,066
-296,964	119,777	-0,054	0,049
-295,949	800,000	-0,007	0,018
-294,935	-200,000	0,019	0,072
-293,920	12,448	-0,089	-0,050
-292,905	-74,851	0,199	0,052
-291,891	162,620	0,060	0,062
-290,876	-59,356	0,005	0,002
-289,862	-87,147	-0,091	0,020
-288,847	54,260	0,049	-0,035
-287,832	800,000	0,015	-0,040
-286,818	-2,232	0,064	0,033
-285,803	-200,000	0,002	0,098
-284,789	-200,000	-0,002	-0,059
-283,774	-23,353	0,056	0,025
-282,759	563,023	-0,018	0,032
-281,745	413,802	-0,088	-0,138
-280,730	512,962	0,067	-0,115
-279,716	-200,000	-0,012	-0,079
-278,701	214,891	-0,038	-0,044
-277,686	30,139	0,155	0,097
-276,672	776,104	-0,027	0,054
-275,657	800,000	-0,022	0,060
-274,643	229,874	0,037	-0,044
-273,628	-44,491	0,084	-0,030
-272,613	-200,000	-0,017	-0,071
-271,599	625,262	-0,017	0,032
-270,584	800,000	-0,010	0,021
-269,570	800,000	-0,021	-0,057
-268,555	118,998	-0,162	-0,146
-267,540	228,070	0,055	0,066
-266,526	-200,000	-0,015	-0,071
-265,511	69,946	0,011	-0,008
-264,497	131,769	0,104	-0,098
-263,482	680,761	0,029	0,056
-262,467	166,761	0,080	0,083
-261,453	800,000	-0,030	0,078
-260,438	-200,000	0,001	0,006
-259,424	0,296	0,106	0,055
-258,409	-160,265	-0,097	0,004
-257,395	800,000	-0,028	-0,088
-256,380	-143,502	0,041	-0,003
-255,365	147,271	0,059	-0,058
-254,351	156,039	-0,036	0,036
-253,336	-53,187	-0,041	-0,014
-252,322	800,000	0,018	-0,039
-251,307	215,002	0,068	0,079
-250,292	86,258	0,092	-0,074
-249,278	657,580	-0,052	-0,098
-248,263	-23,673	0,028	0,012
-247,249	7,610	0,097	0,053
-246,234	-3,807	-0,109	-0,055
-245,219	-120,941	-0,113	0,014
-244,205	-200,000	-0,034	-0,204
-243,190	800,000	-0,033	0,095
-242,176	514,019	-0,008	0,013
-241,161	800,000	0,053	-0,146
-240,146	800,000	-0,062	-0,144
-239,132	114,912	-0,117	-0,105
-238,117	30,038	0,103	-0,064
-237,103	-200,000	-0,000	-0,051
-236,088	-83,700	0,022	0,005
-235,073	248,817	-0,072	-0,089
-234,059	800,000	0,049	-0,117
-233,044	-200,000	-0,010	0,140
-232,030	-57,119	-0,091	0,029
-231,015	689,798	0,017	-0,033
-230,000	-200,000	-0,031	-0,127
-228,986	674,377	-0,066	0,126
-227,971	-200,000	0,000	0,047
-226,957	800,000	0,025	0,069
-225,942	175,455	-0,038	0,040
-224,927	12,684	-0,031	0,017
-223,913	-97,312	-0,070	0,013
-222,898	-200,000	-0,026	0,225
-221,884	758,128	0,038	0,075
-220,869	566,544	-0,050	-0,090
-219,855	-200,000	-0,016	0,079
-218,840	40,098	0,097	0,064
-217,825	40,329	0,063	-0,041
-216,811	800,000	-0,048	-0,105
-215,796	-200,000	0,011	-0,102
-214,782	-17,599	0,113	-0,052
-213,767	199,024	0,058	0,065
-212,752	73,750	0,082	-0,062
-211,738	-40,689	-0,101	0,038
-210,723	-30,935	-0,028	-0,011
-209,709	334,451	-0,074	-0,105
-208,694	800,000	-0,014	0,028
-207,679	107,387	0,028	0,025
-206,665	334,394	0,098	0,139
-205,650	-87,940	0,047	0,010
-204,636	-67,214	-0,099	-0,028
-203,621	-200,000	-0,003	0,045
-202,606	-123,242	-0,054	-0,006
-201,592	-200,000	0,013	-0,073
-200,577	198,606	0,048	-0,054
-199,563	-84,718	-0,108	0,025
-198,548	314,176	0,040	-0,055
-197,533	199,175	0,036	-0,041
-196,519	631,687	-0,045	0,083
-195,504	-200,000	-0,018	-0,080
-194,490	-98,402	0,076	0,014
-193,475	800,000	-0,047	0,097
-192,460	305,282	-0,098	-0,133
-191,446	62,000	-0,039	0,028
-190,431	-200,000	0,004	-0,027
-189,417	-200,000	-0,006	0,115
-188,402	-200,000	0,021	0,136
-187,387	104,362	0,029	0,025
-186,373	477,012	-0,031	-0,051
-185,358	492,584	0,005	0,008
-184,344	92,982	0,158	-0,130
-183,329	-200,000	-0,047	0,158
-182,315	-7,681	-0,030	-0,015
-181,300	102,165	-0,070	-0,059
-180,285	-80,715	0,018	-0,004
-179,271	33,696	-0,105	-0,066
-178,256	-200,000	0,013	0,046
-177,242	280,006	0,051	0,067
-176,227	-147,725	0,060	0,004
-175,212	800,000	0,041	0,105
-174,198	-76,663	-0,179	0,045
-173,183	12,751	-0,024	-0,013
-172,169	-200,000	-0,012	-0,162
-171,154	-200,000	0,001	0,044
-170,139	800,000	-0,038	-0,081
-169,125	412,781	0,031	-0,048
-168,110	-161,992	-0,068	0,002
-167,096	11,635	0,108	0,060
-166,081	66,811	-0,058	0,043
-165,066	201,305	0,040	-0,045
-164,052	-200,000	-0,007	0,053
-163,037	-200,000	0,020	-0,080
-162,023	12,847	-0,027	0,015
-161,008	-200,000	0,008	-0,054
-159,993	-200,000	0,026	0,110
-158,979	-200,000	-0,001	0,004
-157,964	-200,000	-0,023	0,126
-156,950	-200,000	0,002	-0,017
-155,935	-55,901	0,029	0,009
-154,920	-106,692	-0,032	-0,005
-153,906	120,167	0,041	0,037
-152,891	-200,000	0,018	0,153
-151,877	-46,322	-0,085	0,030
-150,862	420,349	0,057	0,089
-149,847	-13,024	0,092	-0,043
-148,833	-46,999	0,049	-0,017
-147,818	-200,000	0,014	0,062
-146,804	-200,000	0,012	-0,051
-145,789	-73,427	0,118	-0,031
-144,775	272,367	-0,068	0,088
-143,760	-200,000	0,003	-0,015
-142,745	-150,603	-0,112	0,006
-141,731	800,000	-0,018	0,042
-140,716	149,806	0,105	-0,104
-139,702	-88,296	0,007	0,001
-138,687	-200,000	-0,009	0,116
-137,672	-38,448	-0,166	-0,064
-136,658	-113,742	0,084	0,012
-135,643	800,000	0,049	0,107
-134,629	24,205	0,033	0,020
-133,614	91,563	0,145	0,118
-132,599	800,000	0,007	-0,022
-131,585	-0,644	0,083	-0,043
-130,570	800,000	0,059	-0,148
-129,556	-200,000	-0,022	-0,137
-128,541	-200,000	0,012	0,052
-127,526	18,451	0,153	0,088
-126,512	800,000	-0,037	0,093
-125,497	-200,000	0,028	-0,096
-124,483	-89,100	0,111	0,024
-123,468	-168,952	-0,107	-0,003
-122,453	-200,000	0,015	-0,080
-121,439	106,372	0,046	0,039
-120,424	277,899	0,040	-0,052
-119,410	-14,782	-0,089	0,041
-118,395	-96,058	-0,116	0,022
