DTS Sentinel unit serial number:	SN410029Multiplexer serial number:	ORYXHardware model number:	OX2-SRSoftware version number:	ORYX F/W v4,00 Oryx Data Collector v3.7.2.0data status	okinstallation	B6 Nyhavnadifferential loss correction	single-endedforward channel	channel 2reverse channel	N/Adate	2023/12/09time	13:00:08forward acquisition time	300,00reverse acquisition time	0,00gamma	499,1914k internal	0,3137k external	0,3137temperature offset calibration	1,0000default loss term (dB/km)	0,3820temperature slope calibration	1,0000multiplexer offset coefficient	1,0000multiplexer slope coefficient	1,0000fibre end	0,00T internal ref (°C)	19,77T ext. ref 1 (°C)	4,58T ext. ref 2 (°C)	4,55length (m)	temperature (°C)	Stokes	anti-Stokes-744,400	800,000	-0,024	-0,077
-743,385	-94,425	-0,381	-0,076
-742,371	800,000	0,025	0,070
-741,356	-84,036	-0,351	0,082
-740,342	-55,619	0,213	0,070
-739,327	-93,128	-0,250	-0,051
-738,312	179,956	0,053	-0,057
-737,298	-163,439	-0,266	-0,009
-736,283	-21,674	0,092	-0,041
-735,269	4,436	-0,190	0,103
-734,254	-200,000	0,020	-0,150
-733,239	-32,185	-0,420	-0,173
-732,225	-64,126	0,125	0,038
-731,210	287,386	0,073	-0,098
-730,196	-200,000	0,041	-0,143
-729,181	-114,917	-0,088	-0,012
-728,167	304,620	0,098	-0,135
-727,152	-48,307	0,165	-0,059
-726,137	455,615	0,046	0,077
-725,123	-85,234	-0,165	-0,038
-724,108	-200,000	0,005	-0,049
-723,094	177,423	-0,127	-0,137
-722,079	-200,000	-0,020	-0,174
-721,064	-200,000	0,014	-0,065
-720,050	664,714	-0,060	0,115
-719,035	-90,968	-0,032	-0,007
-718,021	187,460	-0,112	-0,124
-717,006	183,110	-0,100	-0,109
-715,991	-49,393	-0,122	0,043
-714,977	-7,489	0,120	-0,060
-713,962	141,265	-0,047	-0,046
-712,948	-200,000	-0,036	0,141
-711,933	434,680	0,037	0,060
-710,918	-200,000	0,015	0,067
-709,904	-146,068	-0,172	0,011
-708,889	59,507	-0,108	-0,079
-707,875	-24,453	0,061	-0,027
-706,860	-151,723	0,053	-0,003
-705,845	-41,362	-0,005	0,002
-704,831	3,922	-0,044	-0,024
-703,816	-12,808	-0,112	-0,054
-702,802	277,475	-0,023	0,031
-701,787	390,093	0,013	-0,021
-700,772	147,319	-0,066	0,066
-699,758	-200,000	0,018	0,060
-698,743	-74,887	-0,119	0,031
-697,729	241,951	0,025	-0,031
-696,714	800,000	0,035	0,092
-695,699	800,000	-0,068	-0,187
-694,685	-24,259	-0,069	0,030
-693,670	-200,000	-0,000	-0,017
-692,656	-46,549	0,086	-0,031
-691,641	-28,864	-0,129	0,054
-690,627	-41,793	-0,119	0,045
-689,612	800,000	-0,049	0,104
-688,597	207,718	0,095	0,110
-687,583	800,000	-0,010	0,027
-686,568	461,342	-0,064	-0,106
-685,554	47,195	-0,064	-0,044
-684,539	121,060	0,104	0,096
-683,524	-200,000	0,013	0,086
-682,510	123,891	0,081	0,075
-681,495	-127,173	0,138	0,015
-680,481	-36,529	0,198	-0,079
-679,466	172,178	-0,084	-0,089
-678,451	-200,000	0,002	-0,076
-677,437	336,627	0,049	0,070
-676,422	8,982	0,144	0,080
-675,408	-16,136	-0,048	-0,022
-674,393	36,008	0,043	-0,028
-673,378	800,000	0,019	0,044
-672,364	150,172	-0,010	-0,011
-671,349	43,513	-0,041	-0,028
-670,335	96,609	-0,086	-0,073
-669,320	-81,612	0,049	0,012
-668,305	283,268	-0,023	0,031
-667,291	269,603	-0,042	0,055
-666,276	159,605	0,047	-0,048
-665,262	-8,990	0,095	-0,047
-664,247	-105,637	0,033	0,005
-663,232	-26,561	0,026	0,011
-662,218	-200,000	-0,003	-0,067
-661,203	300,442	-0,036	0,049
-660,189	349,433	0,048	-0,071
-659,174	-33,298	-0,165	0,067
-658,159	800,000	-0,053	-0,140
-657,145	-192,827	-0,124	-0,001
-656,130	-76,846	-0,102	-0,026
-655,116	-200,000	-0,002	-0,041
-654,101	48,934	0,015	-0,010
-653,086	307,925	0,043	-0,060
-652,072	518,609	0,047	-0,081
-651,057	-200,000	-0,021	-0,147
-650,043	-146,380	0,028	0,002
-649,028	163,017	0,116	-0,121
-648,014	-2,408	0,171	0,088
-646,999	-125,539	-0,087	-0,010
-645,984	-200,000	-0,001	0,020
-644,970	210,907	-0,099	-0,116
-643,955	-200,000	-0,032	-0,220
-642,941	-7,399	0,100	-0,050
-641,926	-81,247	-0,049	0,012
-640,911	188,134	-0,076	0,084
-639,897	345,960	-0,047	0,069
-638,882	99,098	0,077	0,066
-637,868	81,391	0,016	-0,013
-636,853	221,749	-0,011	-0,013
-635,838	-22,747	-0,068	0,030
-634,824	-154,191	0,038	-0,002
-633,809	-66,463	0,186	-0,054
-632,795	-57,463	-0,037	-0,012
-631,780	-181,125	-0,185	0,003
-630,765	800,000	-0,009	-0,028
-629,751	218,531	0,068	0,080
-628,736	-32,168	-0,087	-0,036
-627,722	-40,932	0,050	0,019
-626,707	-38,374	0,049	0,019
-625,692	8,465	-0,025	0,014
-624,678	-26,335	0,061	-0,026
-623,663	191,895	0,108	0,120
-622,649	-171,590	-0,061	0,001
-621,634	-140,420	-0,154	-0,012
-620,619	576,468	0,020	-0,036
-619,605	10,166	0,142	-0,080
-618,590	-74,843	-0,058	0,015
-617,576	-200,000	-0,005	0,146
-616,561	152,358	-0,047	-0,047
-615,546	-200,000	0,015	-0,152
-614,532	-6,048	-0,113	-0,057
-613,517	-200,000	0,028	-0,278
-612,503	-118,339	0,075	-0,010
-611,488	86,430	-0,075	0,061
-610,474	295,792	0,046	-0,063
-609,459	18,224	-0,097	0,057
-608,444	154,271	-0,046	-0,046
-607,430	-120,527	0,033	-0,004
-606,415	-200,000	0,008	-0,058
-605,401	-200,000	0,004	0,027
-604,386	-45,206	-0,124	-0,045
-603,371	-115,644	-0,030	0,004
-602,357	800,000	-0,016	-0,040
-601,342	800,000	-0,022	0,062
-600,328	278,027	-0,083	-0,110
-599,313	-200,000	-0,006	-0,066
-598,298	800,000	-0,045	-0,116
-597,284	800,000	-0,048	0,110
-596,269	800,000	0,052	0,109
-595,255	-128,735	0,082	-0,008
-594,240	84,011	0,111	-0,090
-593,225	172,574	0,034	0,036
-592,211	-200,000	0,007	0,082
-591,196	19,386	0,101	-0,060
-590,182	326,658	0,081	-0,115
-589,167	-139,883	0,084	0,006
-588,152	129,840	-0,069	-0,065
-587,138	-34,651	-0,017	0,007
-586,123	-160,733	-0,111	-0,004
-585,109	27,802	-0,092	0,057
-584,094	190,528	0,046	0,051
-583,079	-200,000	-0,011	0,098
-582,065	-97,279	0,134	-0,026
-581,050	-36,514	-0,096	0,038
-580,036	-8,374	0,039	-0,019
-579,021	-200,000	0,013	0,079
-578,006	136,968	0,053	-0,051
-576,992	-150,737	0,060	0,003
-575,977	-84,137	0,089	-0,021
-574,963	800,000	-0,048	-0,106
-573,948	800,000	0,030	0,063
-572,934	-200,000	-0,027	0,087
-571,919	-77,365	-0,053	0,014
-570,904	-48,266	-0,043	-0,015
-569,890	-17,597	0,168	-0,078
-568,875	199,610	-0,088	-0,099
-567,861	17,449	-0,084	0,049
-566,846	35,899	-0,065	-0,042
-565,831	-200,000	0,018	-0,065
-564,817	5,583	-0,023	-0,012
-563,802	-200,000	0,013	0,059
-562,788	-81,083	0,055	0,013
-561,773	-1,302	0,057	0,030
-560,758	29,964	0,052	0,032
-559,744	800,000	-0,040	0,117
-558,729	-19,086	0,119	0,054
-557,715	95,076	-0,078	0,066
-556,700	-200,000	-0,011	-0,108
-555,685	105,907	0,085	-0,074
-554,671	4,133	-0,044	-0,024
-553,656	475,471	-0,100	0,167
-552,642	800,000	-0,083	0,180
-551,627	15,290	0,093	0,054
-550,612	-200,000	-0,011	-0,055
-549,598	311,568	-0,056	-0,077
-548,583	-200,000	-0,011	0,062
-547,569	11,153	-0,013	0,008
-546,554	-200,000	-0,011	0,086
-545,539	-200,000	0,051	0,184
-544,525	-0,138	0,033	-0,017
-543,510	-200,000	-0,005	0,069
-542,496	-80,161	-0,012	-0,003
-541,481	149,524	-0,061	0,061
-540,466	402,891	0,062	-0,097
-539,452	-182,017	0,068	-0,001
-538,437	78,052	0,108	-0,085
-537,423	116,347	-0,031	-0,028
-536,408	-200,000	0,030	-0,118
-535,393	-10,170	0,067	-0,033
-534,379	62,316	-0,024	-0,017
-533,364	800,000	0,045	-0,110
-532,350	130,621	0,059	-0,056
-531,335	-200,000	-0,021	0,205
-530,321	34,198	0,095	0,061
-529,306	-200,000	-0,001	-0,066
-528,291	84,698	-0,121	-0,098
-527,277	23,337	-0,108	0,065
-526,262	-24,232	0,021	0,009
-525,248	329,180	0,075	-0,107
-524,233	189,001	-0,060	-0,066
-523,218	-200,000	0,007	0,041
-522,204	307,869	-0,077	0,105
-521,189	-200,000	0,012	0,105
-520,175	711,450	0,022	-0,042
-519,160	-200,000	-0,002	0,087
-518,145	-60,321	-0,131	0,041
-517,131	-7,787	0,110	0,054
-516,116	507,957	0,024	0,041
-515,102	-30,263	0,093	-0,038
-514,087	27,321	-0,018	-0,011
-513,072	209,487	-0,115	-0,132
-512,058	515,875	0,044	0,075
-511,043	-200,000	0,021	0,160
-510,029	486,668	0,034	0,057
-509,014	-200,000	0,014	-0,084
-507,999	107,499	-0,069	0,061
-506,985	69,990	-0,137	0,104
-505,970	357,944	-0,067	-0,099
-504,956	800,000	-0,014	0,031
-503,941	-200,000	0,002	0,069
-502,926	185,324	0,055	-0,060
-501,912	-200,000	0,029	0,137
-500,897	800,000	-0,062	0,138
-499,883	125,442	0,090	-0,084
-498,868	25,869	0,088	-0,054
-497,853	-46,948	-0,053	-0,019
-496,839	133,368	0,026	-0,024
-495,824	-131,256	0,092	0,009
-494,810	-200,000	-0,005	-0,082
-493,795	-134,157	0,097	-0,009
-492,781	252,796	0,049	0,062
-491,766	9,742	0,030	-0,017
-490,751	-48,354	0,062	0,022
-489,737	29,797	0,118	-0,074
-488,722	-130,384	0,204	0,020
-487,708	-107,652	0,151	0,024
-486,693	-28,959	-0,102	0,043
-485,678	110,400	-0,011	0,010
-484,664	-98,593	0,082	0,015
-483,649	-81,531	-0,087	-0,021
-482,635	-200,000	-0,030	-0,163
-481,620	26,102	-0,125	-0,076
-480,605	-200,000	-0,011	-0,085
-479,591	800,000	0,028	-0,083
-478,576	82,282	-0,046	0,037
-477,562	-200,000	-0,022	-0,090
-476,547	419,107	-0,078	0,122
-475,532	-106,027	0,108	-0,018
-474,518	110,337	-0,120	0,106
-473,503	500,910	0,066	0,113
-472,489	-200,000	-0,011	0,095
-471,474	-200,000	0,003	-0,112
-470,459	-200,000	-0,051	-0,165
-469,445	111,235	0,061	-0,054
-468,430	800,000	-0,035	-0,089
-467,416	-200,000	0,016	0,061
-466,401	94,485	0,093	-0,078
-465,386	800,000	-0,087	0,183
-464,372	-74,973	-0,089	0,023
-463,357	296,276	-0,024	0,032
-462,343	89,863	0,122	-0,100
-461,328	800,000	0,010	-0,026
-460,313	-90,022	-0,067	0,014
-459,299	41,908	0,086	0,057
-458,284	-200,000	0,030	0,120
-457,270	-173,488	-0,072	-0,002
-456,255	800,000	0,032	-0,101
-455,241	800,000	0,018	-0,053
-454,226	88,436	-0,038	0,031
-453,211	-200,000	0,059	0,000
-452,197	800,000	-0,024	0,049
-451,182	436,213	0,038	0,061
-450,168	75,028	-0,099	-0,077
-449,153	-126,162	0,003	0,000
-448,138	125,024	-0,126	-0,117
-447,124	-61,213	-0,099	0,031
-446,109	231,794	0,030	-0,036
-445,095	27,943	-0,079	0,049
-444,080	-200,000	-0,001	0,086
-443,065	195,223	0,047	-0,053
-442,051	-200,000	0,013	-0,079
-441,036	347,997	0,011	0,016
-440,022	198,375	0,055	0,062
-439,007	-145,404	0,039	0,003
-437,992	52,600	-0,050	0,035
-436,978	-200,000	0,008	-0,043
-435,963	698,389	0,056	0,109
-434,949	160,468	-0,084	-0,086
-433,934	-200,000	0,005	0,074
-432,919	632,385	-0,136	-0,255
-431,905	64,156	-0,103	-0,076
-430,890	-122,901	0,095	0,011
-429,876	-200,000	-0,002	0,019
-428,861	729,834	0,098	0,193
-427,846	800,000	-0,036	0,117
-426,832	165,347	-0,223	0,231
-425,817	36,716	0,113	-0,073
-424,803	800,000	0,051	-0,159
-423,788	23,540	-0,061	0,037
-422,773	284,351	0,053	0,070
-421,759	-200,000	0,005	0,026
-420,744	-90,582	-0,082	0,017
-419,730	-20,170	-0,102	0,046
-418,715	336,058	-0,040	-0,057
-417,701	23,320	-0,112	-0,067
-416,686	-135,474	-0,028	-0,002
-415,671	-29,326	0,059	-0,025
-414,657	381,852	0,029	0,043
-413,642	-72,062	-0,123	-0,033
-412,628	-86,585	0,058	-0,013
-411,613	690,811	0,065	-0,125
-410,598	800,000	-0,012	-0,027
-409,584	242,993	-0,093	0,114
-408,569	-200,000	-0,014	-0,075
-407,555	-98,646	-0,070	0,013
-406,540	577,523	-0,062	-0,112
-405,525	-200,000	0,008	-0,026
-404,511	-200,000	0,016	0,052
-403,496	509,260	0,055	-0,094
-402,482	228,390	0,079	-0,094
-401,467	315,843	0,098	-0,136
-400,452	91,675	0,136	-0,112
-399,438	322,354	-0,049	0,069
-398,423	800,000	-0,014	0,030
-397,409	153,933	-0,093	-0,093
-396,394	-200,000	-0,014	0,112
-395,379	39,737	0,100	0,066
-394,365	800,000	-0,053	0,115
-393,350	-35,515	0,048	-0,019
-392,336	159,469	-0,071	0,072
-391,321	800,000	-0,038	0,088
-390,306	-60,394	0,121	-0,038
-389,292	-4,542	-0,145	0,073
-388,277	644,073	0,033	-0,063
-387,263	-200,000	-0,002	0,084
-386,248	49,145	0,077	0,053
-385,233	800,000	-0,031	0,073
-384,219	-171,598	-0,075	-0,002
-383,204	149,485	0,048	0,048
-382,190	458,222	-0,091	-0,148
-381,175	-200,000	-0,027	0,113
-380,160	570,886	0,050	0,089
-379,146	197,500	0,033	0,037
-378,131	-30,433	-0,095	0,039
-377,117	-200,000	0,005	-0,028
-376,102	800,000	-0,021	-0,048
-375,088	-123,588	-0,166	0,019
-374,073	36,517	0,027	-0,018
-373,058	80,533	0,157	0,124
-372,044	-97,756	-0,194	-0,036
-371,029	128,987	0,090	0,084
-370,015	423,169	0,089	0,140
-369,000	-56,595	-0,014	-0,004
-367,985	98,167	0,026	-0,022
-366,971	-17,938	0,044	-0,020
-365,956	-19,997	-0,026	0,012
-364,942	-122,756	0,159	-0,019
-363,927	800,000	-0,032	0,085
-362,912	-87,388	-0,014	0,003
-361,898	-6,364	-0,030	0,015
-360,883	103,265	0,008	-0,007
-359,869	49,287	-0,070	0,048
-358,854	213,914	-0,053	-0,061
-357,839	-200,000	-0,005	0,118
-356,825	202,269	0,043	0,048
-355,810	280,320	-0,033	0,043
-354,796	-200,000	-0,010	0,112
-353,781	-200,000	0,024	-0,121
-352,766	29,891	-0,141	-0,087
-351,752	-176,997	0,130	0,002
-350,737	136,769	-0,015	-0,014
-349,723	-200,000	0,009	-0,128
-348,708	199,353	-0,007	-0,008
-347,693	-72,776	-0,111	-0,030
-346,679	800,000	0,073	-0,181
-345,664	52,405	-0,111	-0,078
-344,650	-0,316	0,076	0,039
-343,635	800,000	-0,061	0,131
-342,620	800,000	0,020	0,060
-341,606	497,044	-0,047	0,079
-340,591	800,000	0,026	0,056
-339,577	-200,000	-0,034	-0,131
-338,562	196,033	0,081	-0,090
-337,548	-37,632	0,094	-0,036
-336,533	-159,335	0,090	-0,004
-335,518	-21,378	-0,059	0,026
-334,504	-22,449	-0,076	-0,033
-333,489	127,906	-0,027	-0,025
-332,475	74,452	-0,084	-0,065
-331,460	63,106	-0,116	-0,084
-330,445	-72,943	-0,061	0,016
-329,431	800,000	-0,019	-0,055
-328,416	-34,884	-0,058	0,023
-327,402	271,721	-0,028	0,036
-326,387	-123,654	0,102	-0,012
-325,372	771,456	-0,021	0,041
-324,358	37,837	-0,050	0,033
-323,343	577,673	0,071	0,126
-322,329	800,000	0,043	0,110
-321,314	238,188	-0,117	0,142
-320,299	306,892	0,054	0,074
-319,285	150,846	0,071	-0,070
-318,270	800,000	-0,047	-0,145
-317,256	39,365	-0,122	-0,080
-316,241	-200,000	-0,011	0,067
-315,226	800,000	0,025	0,075
-314,212	209,784	0,100	0,115
-313,197	-200,000	0,011	0,043
-312,183	800,000	0,024	0,071
-311,168	-147,168	-0,069	-0,004
-310,153	119,445	-0,067	0,061
-309,139	-200,000	0,005	0,018
-308,124	-34,726	0,043	-0,017
-307,110	62,372	0,174	0,126
-306,095	-172,277	0,021	0,000
-305,080	-56,969	-0,014	0,004
-304,066	61,995	-0,124	-0,090
-303,051	5,940	-0,093	0,050
-302,037	-86,607	-0,176	-0,039
-301,022	714,620	-0,059	0,114
-300,008	265,866	-0,099	0,126
-298,993	245,205	0,166	0,204
-297,978	-200,000	-0,035	0,139
-296,964	-83,230	-0,111	-0,026
-295,949	284,631	0,058	-0,076
-294,935	-32,846	-0,133	0,054
-293,920	-8,832	0,030	-0,015
-292,905	-88,290	0,185	0,040
-291,891	-200,000	0,021	0,105
-290,876	-200,000	-0,045	0,148
-289,862	-29,798	-0,059	-0,025
-288,847	-200,000	-0,001	-0,042
-287,832	92,944	0,068	-0,056
-286,818	-200,000	-0,011	-0,057
-285,803	289,218	-0,056	-0,074
-284,789	21,794	0,085	0,050
-283,774	143,988	0,070	0,068
-282,759	-162,457	0,173	0,006
-281,745	-111,664	0,116	0,017
-280,730	-200,000	-0,010	-0,041
-279,716	-200,000	-0,021	0,069
-278,701	18,966	-0,010	-0,006
-277,686	49,449	0,112	0,077
-276,672	-17,149	-0,141	-0,064
-275,657	151,993	-0,061	0,061
-274,643	609,522	-0,057	-0,103
-273,628	-36,226	0,132	0,052
-272,613	-109,826	-0,099	-0,015
-271,599	154,017	-0,077	0,077
-270,584	-200,000	-0,001	0,037
-269,570	800,000	-0,039	0,087
-268,555	-50,848	0,024	0,008
-267,540	-200,000	-0,013	-0,147
-266,526	186,119	-0,047	0,051
-265,511	800,000	0,050	-0,123
-264,497	-184,696	0,167	0,002
-263,482	-200,000	0,016	-0,052
-262,467	-141,362	-0,087	-0,006
-261,453	218,636	-0,048	0,056
-260,438	-200,000	0,014	0,064
-259,424	130,546	-0,096	-0,090
-258,409	130,851	-0,028	0,027
-257,395	-200,000	-0,015	-0,069
-256,380	-126,054	0,094	0,010
-255,365	-21,006	0,125	-0,056
-254,351	800,000	0,029	0,063
-253,336	-200,000	-0,010	0,051
-252,322	-165,417	-0,102	0,003
-251,307	97,153	0,070	-0,058
-250,292	268,648	0,060	-0,076
-249,278	800,000	0,049	0,126
-248,263	-108,278	-0,081	-0,013
-247,249	-18,195	0,058	-0,027
-246,234	800,000	-0,008	0,020
-245,219	-54,275	-0,148	0,049
-244,205	800,000	0,044	-0,122
-243,190	-25,500	-0,109	-0,046
-242,176	800,000	-0,017	-0,049
-241,161	-200,000	0,021	-0,089
-240,146	-200,000	-0,005	0,057
-239,132	-13,109	-0,078	-0,037
-238,117	-200,000	-0,002	0,011
-237,103	-26,535	-0,050	0,021
-236,088	464,776	-0,103	-0,168
-235,073	273,736	0,066	-0,085
-234,059	-60,820	0,118	-0,036
-233,044	-86,515	0,042	0,009
-232,030	800,000	0,026	-0,071
-231,015	147,353	-0,113	0,111
-230,000	155,125	-0,047	-0,047
-228,986	83,338	0,086	-0,068
-227,971	-167,285	0,235	0,007
-226,957	104,628	-0,025	-0,021
-225,942	410,997	0,040	0,061
-224,927	328,377	-0,050	0,071
-223,913	-131,968	0,060	-0,006
-222,898	66,359	0,107	-0,079
-221,884	-200,000	0,008	-0,141
-220,869	352,816	0,061	-0,088
-219,855	800,000	0,040	-0,118
-218,840	800,000	0,048	0,118
-217,825	-200,000	0,006	0,107
-216,811	-200,000	0,017	-0,104
-215,796	71,315	-0,147	-0,110
-214,782	-111,972	-0,041	-0,006
-213,767	100,683	0,086	0,073
-212,752	-97,194	0,077	0,015
-211,738	-31,576	0,044	0,018
-210,723	-200,000	-0,020	-0,103
-209,709	-200,000	-0,015	-0,133
-208,694	-200,000	-0,005	-0,041
-207,679	800,000	-0,043	-0,111
-206,665	-200,000	-0,011	0,123
-205,650	168,674	0,087	0,091
-204,636	81,110	-0,061	-0,048
-203,621	123,843	-0,089	-0,081
-202,606	85,070	-0,166	-0,132
-201,592	224,955	-0,135	-0,159
-200,577	615,440	-0,057	0,105
-199,563	118,896	0,135	-0,121
-198,548	81,726	-0,005	0,004
-197,533	-200,000	-0,004	-0,087
-196,519	23,017	-0,069	-0,041
-195,504	-35,914	-0,104	-0,041
-194,490	44,836	-0,123	-0,082
-193,475	162,965	0,079	-0,081
-192,460	179,544	-0,047	0,050
-191,446	278,555	0,086	-0,112
-190,431	-80,962	0,102	-0,024
-189,417	-200,000	-0,010	0,071
-188,402	-200,000	0,018	-0,112
-187,387	326,615	0,010	-0,015
-186,373	-200,000	-0,007	-0,039
-185,358	273,786	-0,053	0,069
-184,344	57,100	0,085	-0,060
-183,329	-200,000	-0,035	0,138
-182,315	-148,298	-0,052	0,003
-181,300	230,243	0,068	-0,080
-180,285	-81,247	0,113	0,027
-179,271	800,000	-0,045	0,118
-178,256	-129,108	0,120	0,012
-177,242	318,514	0,033	-0,046
-176,227	-200,000	0,004	0,070
-175,212	-200,000	0,017	0,057
-174,198	70,788	-0,039	0,029
-173,183	-50,483	0,034	0,012
-172,169	644,250	0,035	-0,064
-171,154	79,940	0,090	0,070
-170,139	-1,774	0,129	0,066
-169,125	-200,000	0,011	0,085
-168,110	67,987	0,066	0,049
-167,096	-182,657	0,064	0,001
-166,081	162,005	0,014	-0,014
-165,066	575,631	-0,007	0,013
-164,052	408,191	-0,033	0,050
-163,037	-76,545	0,108	0,027
-162,023	-74,088	0,084	0,022
-161,008	-138,033	0,077	0,006
-159,993	-200,000	-0,021	-0,069
-158,979	-87,659	-0,201	-0,044
-157,964	-200,000	-0,023	-0,104
-156,950	-200,000	0,008	-0,029
-155,935	-48,999	0,076	0,026
-154,920	-200,000	0,003	-0,084
-153,906	-121,417	-0,077	-0,009
-152,891	-200,000	-0,016	0,159
-151,877	-131,531	0,120	0,011
-150,862	800,000	-0,022	-0,065
-149,847	333,540	-0,037	-0,053
-148,833	244,012	-0,031	0,038
-147,818	389,940	0,078	0,118
-146,804	-2,748	0,110	-0,056
-145,789	800,000	-0,024	0,073
-144,775	-70,020	-0,067	-0,018
-143,760	284,969	0,053	-0,069
-142,745	158,068	-0,124	-0,125
-141,731	30,779	-0,020	-0,013
-140,716	-26,316	0,261	0,111
-139,702	800,000	-0,033	0,091
-138,687	413,476	-0,034	0,053
-137,672	-39,280	-0,007	0,003
-136,658	112,238	0,057	-0,050
-135,643	800,000	0,054	-0,160
-134,629	32,725	-0,035	-0,022
-133,614	800,000	-0,052	-0,142
-132,599	-105,811	0,114	-0,019
-131,585	800,000	-0,037	0,096
-130,570	-118,577	-0,196	-0,025
-129,556	-45,538	-0,069	0,024
-128,541	152,966	-0,028	0,028
-127,526	-200,000	0,025	-0,131
-126,512	-200,000	-0,000	-0,010
-125,497	800,000	0,029	-0,082
-124,483	106,178	-0,072	0,061
-123,468	-200,000	-0,008	0,037
-122,453	-200,000	0,005	0,175
-121,439	265,787	0,057	0,073
-120,424	-166,098	0,162	-0,005
-119,410	-8,738	0,052	-0,025
