DTS Sentinel unit serial number:	SN410029Multiplexer serial number:	ORYXHardware model number:	OX2-SRSoftware version number:	ORYX F/W v4,00 Oryx Data Collector v3.7.2.0data status	okinstallation	B6 Nyhavnadifferential loss correction	single-endedforward channel	channel 2reverse channel	N/Adate	2023/12/10time	07:30:08forward acquisition time	300,00reverse acquisition time	0,00gamma	499,1914k internal	0,3123k external	0,3123temperature offset calibration	1,0000default loss term (dB/km)	0,3820temperature slope calibration	1,0000multiplexer offset coefficient	1,0000multiplexer slope coefficient	1,0000fibre end	0,00T internal ref (°C)	22,62T ext. ref 1 (°C)	6,33T ext. ref 2 (°C)	6,31length (m)	temperature (°C)	Stokes	anti-Stokes-744,400	800,000	0,024	-0,051
-743,385	195,829	-0,086	0,098
-742,371	800,000	0,057	0,172
-741,356	245,614	-0,171	0,215
-740,342	-135,835	0,097	0,008
-739,327	55,314	-0,148	0,106
-738,312	-130,518	-0,097	-0,010
-737,298	103,746	-0,220	0,193
-736,283	-37,782	0,015	0,006
-735,269	82,459	-0,282	0,228
-734,254	800,000	-0,026	0,060
-733,239	-80,010	-0,364	-0,090
-732,225	-65,486	0,072	0,021
-731,210	800,000	-0,030	0,080
-730,196	74,864	0,014	0,011
-729,181	402,631	0,032	0,051
-728,167	-200,000	-0,001	0,042
-727,152	-200,000	-0,012	-0,049
-726,137	85,514	-0,075	-0,061
-725,123	-200,000	-0,018	-0,159
-724,108	-200,000	0,014	-0,086
-723,094	134,895	-0,048	-0,046
-722,079	-39,172	-0,029	0,011
-721,064	83,535	-0,083	-0,067
-720,050	-200,000	0,003	0,077
-719,035	273,755	-0,048	-0,064
-718,021	783,338	-0,036	0,073
-717,006	-200,000	0,007	0,116
-715,991	-56,360	-0,086	-0,028
-714,977	-200,000	-0,004	0,064
-713,962	24,424	-0,076	0,047
-712,948	599,556	-0,123	-0,229
-711,933	396,281	0,105	0,164
-710,918	800,000	-0,019	-0,042
-709,904	800,000	-0,053	-0,160
-708,889	224,491	0,056	0,068
-707,875	10,585	-0,058	-0,033
-706,860	190,501	0,052	-0,058
-705,845	-200,000	-0,009	0,040
-704,831	-70,152	-0,085	-0,024
-703,816	191,353	-0,036	-0,040
-702,802	-174,997	-0,121	-0,002
-701,787	435,844	-0,055	-0,089
-700,772	-20,472	0,039	0,018
-699,758	-200,000	-0,004	0,113
-698,743	800,000	-0,042	0,136
-697,729	800,000	-0,024	-0,051
-696,714	-25,300	0,046	0,020
-695,699	-200,000	0,013	-0,047
-694,685	222,996	-0,065	-0,078
-693,670	674,041	0,017	-0,033
-692,656	8,262	-0,081	0,045
-691,641	-200,000	0,004	0,055
-690,627	800,000	-0,102	0,222
-689,612	667,500	-0,034	0,066
-688,597	82,824	-0,066	-0,053
-687,583	-196,961	-0,064	0,000
-686,568	-200,000	0,003	-0,057
-685,554	-103,480	0,112	-0,019
-684,539	-44,757	-0,037	0,014
-683,524	-110,148	0,088	-0,014
-682,510	-4,594	0,026	-0,013
-681,495	800,000	0,022	-0,057
-680,481	583,439	0,029	-0,053
-679,466	-112,071	-0,241	-0,036
-678,451	-200,000	-0,023	-0,076
-677,437	-200,000	-0,011	-0,135
-676,422	155,083	-0,057	0,058
-675,408	-46,844	0,141	0,051
-674,393	212,339	-0,057	-0,067
-673,378	340,038	-0,022	0,032
-672,364	63,225	-0,088	-0,066
-671,349	-65,522	-0,058	-0,017
-670,335	1,322	-0,227	-0,121
-669,320	-200,000	-0,006	0,069
-668,305	-200,000	0,001	-0,087
-667,291	-43,117	-0,153	-0,057
-666,276	-128,125	-0,066	-0,007
-665,262	-200,000	0,021	-0,075
-664,247	664,594	0,018	0,036
-663,232	-187,582	-0,081	-0,001
-662,218	94,924	-0,067	0,056
-661,203	-200,000	0,008	-0,100
-660,189	29,146	0,044	0,028
-659,174	-128,536	-0,121	0,013
-658,159	-106,277	-0,189	0,031
-657,145	-200,000	-0,002	0,092
-656,130	-200,000	-0,017	0,059
-655,116	195,032	0,056	0,063
-654,101	-200,000	-0,022	0,161
-653,086	-200,000	0,017	0,113
-652,072	-200,000	-0,011	-0,055
-651,057	-103,035	-0,120	0,021
-650,043	-133,190	0,121	-0,011
-649,028	800,000	-0,020	-0,049
-648,014	638,317	0,007	0,013
-646,999	138,046	-0,109	-0,106
-645,984	800,000	-0,041	0,095
-644,970	268,824	0,077	-0,101
-643,955	-200,000	-0,052	-0,295
-642,941	-26,094	-0,027	-0,012
-641,926	112,332	0,108	0,097
-640,911	-65,379	0,105	0,031
-639,897	-24,239	0,143	0,063
-638,882	23,514	-0,122	0,074
-637,868	-200,000	0,038	-0,158
-636,853	-200,000	-0,021	-0,192
-635,838	476,198	-0,105	-0,176
-634,824	324,196	-0,071	0,100
-633,809	800,000	0,031	0,073
-632,795	-97,709	0,107	-0,020
-631,780	-59,943	0,004	0,001
-630,765	-200,000	-0,006	-0,059
-629,751	34,579	0,046	0,030
-628,736	-171,784	0,031	0,001
-627,722	800,000	-0,030	-0,094
-626,707	-200,000	-0,011	-0,124
-625,692	-22,557	-0,124	-0,055
-624,678	-133,454	0,019	-0,002
-623,663	423,325	0,031	-0,049
-622,649	310,811	-0,073	-0,101
-621,634	200,274	0,009	-0,010
-620,619	-17,281	0,097	-0,045
-619,605	444,567	0,008	0,014
-618,590	544,312	0,013	-0,023
-617,576	800,000	-0,021	-0,068
-616,561	110,233	-0,024	-0,022
-615,546	502,767	0,028	0,048
-614,532	-139,341	-0,099	-0,008
-613,517	-85,664	-0,122	0,028
-612,503	738,674	0,059	-0,118
-611,488	-65,816	0,050	0,015
-610,474	-145,207	-0,125	0,008
-609,459	509,082	0,084	0,146
-608,444	-2,599	-0,084	-0,043
-607,430	225,936	-0,043	-0,052
-606,415	-149,411	-0,015	-0,001
-605,401	-67,203	0,055	0,016
-604,386	135,090	-0,006	0,005
-603,371	800,000	-0,052	0,127
-602,357	-200,000	0,017	0,134
-601,342	171,166	0,077	-0,082
-600,328	800,000	-0,037	0,080
-599,313	78,677	-0,006	0,004
-598,298	82,578	-0,026	0,021
-597,284	15,726	0,118	0,069
-596,269	-51,348	0,032	0,011
-595,255	-51,540	0,064	0,022
-594,240	-200,000	0,032	0,107
-593,225	-200,000	-0,048	-0,291
-592,211	800,000	-0,054	-0,157
-591,196	131,130	0,101	-0,096
-590,182	-200,000	0,017	0,077
-589,167	-200,000	0,010	0,054
-588,152	405,470	-0,060	0,093
-587,138	-126,396	0,098	-0,011
-586,123	0,502	-0,029	0,015
-585,109	-127,860	-0,084	0,009
-584,094	1,149	-0,027	0,014
-583,079	-200,000	-0,001	-0,016
-582,065	398,884	-0,082	0,127
-581,050	133,590	-0,075	0,072
-580,036	-195,180	0,084	-0,000
-579,021	-200,000	0,005	-0,115
-578,006	-88,402	0,135	-0,030
-576,992	-118,363	-0,203	0,026
-575,977	-200,000	-0,001	-0,027
-574,963	-59,991	0,049	-0,015
-573,948	260,366	0,088	-0,113
-572,934	-88,605	-0,052	-0,011
-571,919	-46,715	0,055	-0,020
-570,904	-102,288	-0,081	-0,014
-569,890	247,977	-0,095	0,119
-568,875	16,557	0,045	0,026
-567,861	-200,000	0,002	-0,039
-566,846	800,000	0,027	-0,079
-565,831	-66,240	0,043	-0,013
-564,817	-75,868	0,056	0,014
-563,802	800,000	0,065	0,149
-562,788	51,647	0,041	0,029
-561,773	-140,030	-0,120	-0,009
-560,758	13,538	-0,097	-0,055
-559,744	53,980	0,021	-0,015
-558,729	345,592	-0,028	-0,041
-557,715	-17,535	-0,156	-0,072
-556,700	-145,354	-0,031	-0,002
-555,685	178,737	0,056	-0,061
-554,671	-76,488	-0,067	0,017
-553,656	386,439	-0,074	0,113
-552,642	330,697	0,079	0,113
-551,627	-200,000	-0,022	0,173
-550,612	148,413	0,036	-0,036
-549,598	47,888	-0,075	-0,052
-548,583	30,982	-0,127	-0,080
-547,569	682,001	0,021	-0,041
-546,554	402,624	0,031	-0,049
-545,539	-200,000	0,016	-0,086
-544,525	241,509	-0,008	0,010
-543,510	-13,844	-0,032	-0,015
-542,496	121,501	0,025	-0,023
-541,481	-72,346	-0,040	-0,011
-540,466	395,741	0,030	-0,047
-539,452	33,405	0,083	-0,053
-538,437	800,000	-0,068	0,150
-537,423	-200,000	0,007	-0,144
-536,408	475,837	-0,077	-0,129
-535,393	-200,000	-0,021	-0,084
-534,379	32,123	-0,117	-0,074
-533,364	-200,000	-0,003	0,016
-532,350	-200,000	0,038	-0,126
-531,335	800,000	0,026	0,074
-530,321	256,782	-0,071	0,090
-529,306	-112,923	0,155	-0,022
-528,291	231,066	-0,073	0,089
-527,277	14,100	-0,070	-0,040
-526,262	297,846	-0,087	-0,119
-525,248	-200,000	0,003	-0,038
-524,233	26,563	0,085	0,052
-523,218	800,000	0,018	0,037
-522,204	-200,000	-0,014	-0,165
-521,189	-200,000	0,007	0,054
-520,175	-200,000	-0,007	0,074
-519,160	15,673	-0,074	0,043
-518,145	7,888	-0,054	0,030
-517,131	5,288	0,078	-0,042
-516,116	33,353	-0,018	-0,011
-515,102	-200,000	-0,017	0,148
-514,087	-3,378	-0,074	0,038
-513,072	-114,592	-0,082	0,011
-512,058	-58,497	0,081	-0,026
-511,043	502,878	-0,031	0,053
-510,029	-200,000	0,004	0,107
-509,014	7,509	0,115	-0,063
-507,999	-134,987	0,115	-0,010
-506,985	132,080	0,043	0,041
-505,970	163,462	0,012	0,012
-504,956	72,727	0,059	-0,046
-503,941	-19,086	0,037	0,017
-502,926	175,019	0,049	-0,052
-501,912	-200,000	-0,029	-0,127
-500,897	74,062	-0,125	-0,097
-499,883	-39,076	0,037	0,014
-498,868	-96,207	-0,097	-0,019
-497,853	102,176	-0,057	0,049
-496,839	267,973	-0,059	-0,077
-495,824	66,107	-0,102	0,076
-494,810	323,577	-0,022	-0,032
-493,795	497,931	0,061	-0,105
-492,781	364,035	0,022	-0,033
-491,766	-132,457	-0,031	-0,003
-490,751	-147,958	-0,129	-0,008
-489,737	-140,679	-0,136	-0,010
-488,722	-200,000	-0,033	0,167
-487,708	275,517	0,071	0,094
-486,693	161,965	0,073	0,076
-485,678	277,205	0,093	-0,122
-484,664	139,890	-0,109	-0,106
-483,649	-30,316	-0,114	-0,047
-482,635	26,174	-0,074	-0,045
-481,620	-162,307	0,106	0,004
-480,605	548,618	0,022	0,039
-479,591	-63,085	0,135	0,041
-478,576	3,137	0,011	0,006
-477,562	-119,808	-0,130	-0,016
-476,547	549,433	0,039	-0,069
-475,532	-200,000	-0,035	-0,136
-474,518	-75,106	0,060	-0,016
-473,503	800,000	0,015	-0,050
-472,489	54,661	-0,037	-0,027
-471,474	624,154	0,032	0,060
-470,459	214,389	0,012	-0,014
-469,445	-127,068	-0,139	0,015
-468,430	-174,405	0,155	0,003
-467,416	-0,824	0,038	0,020
-466,401	28,024	0,061	-0,038
-465,386	332,205	0,020	-0,029
-464,372	115,136	0,050	-0,045
-463,357	95,623	0,106	0,089
-462,343	-200,000	0,008	-0,029
-461,328	-9,430	-0,020	-0,010
-460,313	399,339	0,028	0,043
-459,299	800,000	0,003	-0,006
-458,284	-200,000	0,006	0,098
-457,270	102,544	-0,106	0,091
-456,255	15,796	-0,206	0,119
-455,241	-94,107	0,068	-0,014
-454,226	800,000	-0,022	0,065
-453,211	-131,563	0,124	-0,012
-452,197	165,943	0,085	0,089
-451,182	-200,000	0,019	0,196
-450,168	229,170	-0,039	0,047
-449,153	-200,000	0,000	-0,027
-448,138	301,189	-0,068	-0,092
-447,124	-200,000	0,005	-0,047
-446,109	441,054	-0,011	0,018
-445,095	316,929	0,053	0,074
-444,080	-200,000	0,008	0,128
-443,065	-200,000	-0,026	0,110
-442,051	800,000	-0,017	-0,055
-441,036	387,736	0,053	-0,081
-440,022	25,923	-0,051	0,031
-439,007	258,587	0,099	-0,126
-437,992	290,368	0,038	0,051
-436,978	-116,032	-0,079	-0,011
-435,963	170,699	0,066	0,070
-434,949	-25,025	-0,055	0,024
-433,934	290,527	0,043	-0,058
-432,919	800,000	0,006	-0,013
-431,905	-195,882	0,165	0,001
-430,890	150,799	0,098	0,098
-429,876	-83,696	0,198	0,046
-428,861	88,083	-0,093	0,076
-427,846	-26,503	-0,023	-0,010
-426,832	403,134	-0,007	0,011
-425,817	-111,259	-0,177	0,026
-424,803	800,000	-0,045	0,103
-423,788	399,426	-0,039	0,061
-422,773	-200,000	-0,023	0,112
-421,759	800,000	-0,035	0,095
-420,744	250,673	-0,013	-0,016
-419,730	-200,000	0,032	-0,129
-418,715	427,782	0,035	-0,056
-417,701	-200,000	0,023	-0,101
-416,686	-200,000	-0,003	-0,015
-415,671	800,000	-0,017	-0,039
-414,657	-41,905	0,107	0,040
-413,642	-200,000	0,009	0,078
-412,628	800,000	0,002	-0,007
-411,613	243,582	0,027	-0,034
-410,598	-5,997	-0,015	-0,007
-409,584	113,058	0,105	0,094
-408,569	296,182	0,083	0,112
-407,555	-6,847	-0,008	-0,004
-406,540	-200,000	-0,022	-0,106
-405,525	-0,953	-0,076	-0,040
-404,511	800,000	-0,070	-0,145
-403,496	-200,000	0,016	-0,074
-402,482	-15,586	-0,019	-0,009
-401,467	266,558	-0,049	0,063
-400,452	-35,676	0,118	0,047
-399,438	800,000	0,017	0,034
-398,423	-200,000	0,004	-0,015
-397,409	800,000	-0,010	0,023
-396,394	701,883	0,022	-0,043
-395,379	-76,884	-0,071	0,018
-394,365	800,000	-0,037	0,080
-393,350	433,027	-0,079	0,126
-392,336	-200,000	0,012	0,045
-391,321	-200,000	-0,017	0,080
-390,306	92,978	-0,064	-0,054
-389,292	-32,849	0,100	-0,041
-388,277	-146,604	-0,043	0,003
-387,263	259,937	-0,042	0,054
-386,248	0,983	0,040	-0,021
-385,233	-200,000	0,004	0,100
-384,219	-122,983	-0,068	0,008
-383,204	99,505	-0,036	0,031
-382,190	205,885	-0,156	0,179
-381,175	-84,174	-0,133	-0,031
-380,160	390,711	-0,046	0,070
-379,146	458,981	-0,076	0,125
-378,131	-101,510	0,067	-0,012
-377,117	-10,352	0,104	-0,050
-376,102	74,995	-0,044	-0,034
-375,088	-21,104	-0,028	0,013
-374,073	800,000	0,030	-0,063
-373,058	-96,657	0,095	-0,018
-372,044	-61,828	-0,062	-0,019
-371,029	-103,366	0,194	0,033
-370,015	177,890	-0,083	-0,089
-369,000	-2,050	-0,022	0,011
-367,985	368,822	-0,037	0,056
-366,971	83,630	0,094	0,076
-365,956	-107,799	0,134	0,021
-364,942	-138,461	-0,094	-0,007
-363,927	71,193	0,033	0,025
-362,912	-165,898	0,115	0,004
-361,898	-200,000	0,002	0,045
-360,883	-131,486	-0,294	-0,028
-359,869	800,000	-0,047	-0,143
-358,854	-41,336	0,054	0,020
-357,839	-200,000	0,018	0,151
-356,825	346,328	-0,047	0,068
-355,810	800,000	0,042	0,086
-354,796	-100,147	-0,030	0,005
-353,781	-64,948	0,031	-0,009
-352,766	477,071	-0,071	0,119
-351,752	74,583	-0,071	-0,054
-350,737	67,036	-0,110	0,082
-349,723	-144,924	0,023	0,002
-348,708	-160,141	0,059	-0,002
-347,693	552,705	0,006	-0,011
-346,679	-200,000	-0,009	-0,112
-345,664	-200,000	0,013	-0,085
-344,650	199,413	-0,035	0,039
-343,635	-174,599	0,067	-0,001
-342,620	190,426	0,123	-0,135
-341,606	800,000	0,032	-0,065
-340,591	-200,000	0,008	0,033
-339,577	800,000	-0,040	-0,093
-338,562	226,265	0,031	0,036
-337,548	38,445	0,095	0,062
-336,533	-200,000	-0,006	-0,022
-335,518	345,940	-0,042	0,061
-334,504	-89,773	0,115	0,024
-333,489	-200,000	0,031	-0,143
-332,475	-135,900	0,150	-0,013
-331,460	-200,000	0,008	0,071
-330,445	17,509	-0,101	0,059
-329,431	-171,296	0,167	0,004
-328,416	-200,000	-0,019	0,095
-327,402	800,000	-0,054	0,118
-326,387	-200,000	0,008	-0,052
-325,372	-119,373	-0,091	-0,011
-324,358	-94,533	0,044	-0,009
-323,343	-10,338	-0,093	0,045
-322,329	-55,139	-0,060	-0,020
-321,314	-200,000	0,011	0,046
-320,299	800,000	-0,048	0,114
-319,285	-88,594	-0,133	-0,029
-318,270	144,547	-0,077	-0,075
-317,256	195,877	0,150	-0,167
-316,241	-91,579	-0,145	0,030
-315,226	-200,000	-0,022	-0,108
-314,212	91,218	0,113	0,093
-313,197	-200,000	-0,033	0,145
-312,183	800,000	-0,023	0,069
-311,168	636,268	0,044	-0,082
-310,153	-200,000	0,016	-0,055
-309,139	670,703	0,051	0,098
-308,124	-58,698	-0,079	0,025
-307,110	-31,830	0,073	-0,030
-306,095	329,554	0,016	0,022
-305,080	800,000	0,052	-0,166
-304,066	216,787	-0,080	0,093
-303,051	-8,771	-0,024	-0,012
-302,037	-118,261	0,019	-0,002
-301,022	-8,104	0,022	0,011
-300,008	3,251	0,150	-0,079
-298,993	-200,000	0,002	0,089
-297,978	414,944	0,051	-0,080
-296,964	134,550	-0,094	0,089
-295,949	800,000	0,021	-0,058
-294,935	-164,931	0,038	0,001
-293,920	-36,306	0,128	-0,050
-292,905	105,038	0,017	0,015
-291,891	-109,056	-0,056	-0,009
-290,876	800,000	0,042	0,118
-289,862	-53,218	0,106	-0,036
-288,847	149,279	-0,076	0,076
-287,832	138,495	-0,080	-0,077
-286,818	-200,000	0,026	0,134
-285,803	800,000	0,062	-0,195
-284,789	-35,309	0,036	-0,014
-283,774	72,051	0,108	-0,082
-282,759	228,207	0,085	-0,101
-281,745	-142,996	0,101	-0,007
-280,730	171,514	-0,073	0,077
-279,716	-200,000	-0,034	-0,127
-278,701	293,745	0,009	-0,012
-277,686	-200,000	0,012	0,093
-276,672	-27,250	-0,028	0,012
-275,657	-200,000	-0,008	-0,113
-274,643	-200,000	-0,021	-0,106
-273,628	800,000	-0,043	-0,088
-272,613	-200,000	-0,033	0,176
-271,599	-119,731	0,067	0,008
-270,584	-144,181	-0,032	-0,002
-269,570	253,516	0,058	0,072
-268,555	87,475	-0,173	-0,140
-267,540	234,515	-0,059	-0,072
-266,526	10,650	0,143	-0,080
-265,511	103,615	-0,089	0,077
-264,497	800,000	0,015	0,040
-263,482	-118,010	0,079	-0,010
-262,467	18,417	0,112	0,065
-261,453	-103,916	-0,112	0,019
-260,438	800,000	0,027	0,064
-259,424	30,936	-0,141	-0,088
-258,409	800,000	0,062	-0,174
-257,395	687,386	0,032	-0,061
-256,380	-200,000	0,008	0,054
-255,365	-200,000	0,016	0,059
-254,351	-0,981	0,057	-0,029
-253,336	-200,000	-0,009	-0,033
-252,322	81,523	-0,043	-0,034
-251,307	20,190	0,107	-0,063
-250,292	8,562	-0,021	0,012
-249,278	-27,502	0,035	-0,015
-248,263	-35,105	0,104	-0,041
-247,249	47,885	-0,168	0,114
-246,234	-38,133	0,047	0,018
-245,219	-200,000	0,026	-0,159
-244,205	288,705	0,020	-0,027
-243,190	59,987	-0,003	0,002
-242,176	326,122	-0,033	0,047
-241,161	322,823	0,112	0,157
-240,146	-4,988	0,125	0,063
-239,132	-104,962	0,114	-0,019
-238,117	-200,000	-0,002	-0,066
-237,103	280,144	-0,085	-0,112
-236,088	-119,118	-0,043	0,005
-235,073	210,508	-0,088	0,101
-234,059	121,601	-0,038	-0,035
-233,044	708,174	0,037	-0,071
-232,030	-200,000	-0,003	-0,015
-231,015	-62,639	0,160	0,048
-230,000	-56,574	-0,157	0,051
-228,986	-147,388	0,013	-0,001
-227,971	55,979	-0,065	0,046
-226,957	-13,721	0,088	0,042
-225,942	-141,731	0,156	0,011
-224,927	512,124	-0,013	0,022
-223,913	-200,000	0,020	0,093
-222,898	-36,191	-0,082	-0,032
-221,884	-200,000	-0,027	-0,088
-220,869	349,266	0,031	0,045
-219,855	-9,523	0,031	-0,015
-218,840	46,259	-0,098	-0,066
-217,825	-200,000	0,026	0,108
-216,811	50,211	-0,032	-0,022
-215,796	-70,000	-0,159	-0,044
-214,782	800,000	-0,038	-0,106
-213,767	-36,237	-0,114	-0,045
-212,752	-1,256	0,024	0,012
-211,738	-200,000	0,102	-0,000
-210,723	28,375	0,028	0,017
-209,709	21,981	-0,099	0,059
-208,694	286,337	-0,040	-0,052
-207,679	-200,000	-0,022	0,100
-206,665	66,893	0,090	-0,067
-205,650	63,695	0,071	-0,052
-204,636	163,668	-0,059	0,061
-203,621	266,262	-0,056	0,072
-202,606	-88,974	0,040	0,009
-201,592	-172,585	-0,052	-0,001
-200,577	-161,152	0,025	0,001
-199,563	-200,000	0,013	-0,094
-198,548	800,000	-0,048	-0,123
-197,533	67,504	0,082	-0,061
-196,519	800,000	0,033	0,074
-195,504	800,000	-0,056	0,133
-194,490	-15,135	-0,030	-0,014
-193,475	-66,777	-0,045	-0,013
-192,460	-200,000	-0,038	0,142
-191,446	-200,000	0,003	-0,131
-190,431	505,053	0,069	-0,118
-189,417	156,865	-0,033	-0,033
-188,402	800,000	-0,043	0,097
-187,387	-200,000	-0,014	0,072
-186,373	-27,257	-0,112	0,047
-185,358	544,593	0,072	0,126
-184,344	715,378	0,036	0,070
-183,329	-200,000	-0,020	0,207
-182,315	800,000	0,044	0,140
-181,300	3,791	-0,052	0,027
-180,285	-20,334	-0,088	-0,039
-179,271	-104,596	0,050	0,008
-178,256	800,000	-0,033	-0,088
-177,242	411,610	0,036	0,055
-176,227	-200,000	0,003	0,123
-175,212	-14,396	-0,026	0,012
-174,198	-163,776	0,088	-0,003
-173,183	89,470	-0,014	0,011
-172,169	-200,000	0,005	0,057
-171,154	800,000	0,015	0,035
-170,139	61,213	0,043	-0,031
-169,125	800,000	-0,026	-0,068
-168,110	-149,734	0,138	-0,008
-167,096	636,240	-0,083	-0,154
-166,081	42,559	0,109	0,072
-165,066	-113,265	0,086	0,012
-164,052	-200,000	-0,024	-0,212
-163,037	800,000	0,015	0,033
-162,023	205,431	0,090	0,102
-161,008	117,783	0,097	0,087
-159,993	-200,000	-0,014	-0,100
-158,979	-200,000	-0,017	0,085
-157,964	7,391	-0,108	-0,059
-156,950	164,627	0,083	-0,085
-155,935	25,900	0,051	0,031
-154,920	-200,000	-0,008	-0,072
-153,906	800,000	-0,023	0,062
-152,891	400,679	-0,035	-0,053
-151,877	-200,000	0,010	0,057
-150,862	-200,000	0,004	-0,144
-149,847	82,611	0,095	-0,075
-148,833	-117,813	0,110	-0,014
-147,818	372,421	-0,075	0,111
-146,804	-104,199	-0,032	0,005
-145,789	-27,147	0,050	0,021
-144,775	13,206	0,030	-0,017
-143,760	800,000	0,030	0,062
-142,745	668,300	0,049	-0,093
-141,731	-29,611	0,115	0,048
-140,716	-77,476	-0,072	-0,018
-139,702	523,310	0,027	0,047
-138,687	570,784	0,040	0,071
-137,672	116,964	0,077	0,069
-136,658	117,296	-0,048	-0,043
-135,643	79,047	-0,136	-0,106
-134,629	28,980	-0,079	-0,048
-133,614	-200,000	0,017	0,087
-132,599	756,592	-0,018	-0,035
-131,585	-97,982	0,099	0,018
-130,570	142,162	0,125	0,121
-129,556	-200,000	-0,007	-0,034
-128,541	391,953	-0,042	-0,064
-127,526	-200,000	-0,015	-0,069
-126,512	197,289	-0,043	0,047
-125,497	-200,000	-0,003	0,153
-124,483	800,000	-0,060	-0,145
-123,468	191,678	0,085	0,093
-122,453	-200,000	-0,002	-0,128
-121,439	225,563	-0,032	-0,038
-120,424	49,163	-0,177	-0,121
-119,410	29,086	0,056	0,035
