DTS Sentinel unit serial number:	SN410029Multiplexer serial number:	ORYXHardware model number:	OX2-SRSoftware version number:	ORYX F/W v4,00 Oryx Data Collector v3.7.2.0data status	okinstallation	B6 Nyhavnadifferential loss correction	single-endedforward channel	channel 2reverse channel	N/Adate	2023/12/10time	13:55:08forward acquisition time	300,00reverse acquisition time	0,00gamma	499,1914k internal	0,3122k external	0,3122temperature offset calibration	1,0000default loss term (dB/km)	0,3820temperature slope calibration	1,0000multiplexer offset coefficient	1,0000multiplexer slope coefficient	1,0000fibre end	0,00T internal ref (°C)	22,70T ext. ref 1 (°C)	6,22T ext. ref 2 (°C)	6,22length (m)	temperature (°C)	Stokes	anti-Stokes-744,400	577,801	0,065	-0,119
-743,385	-52,947	-0,176	0,060
-742,371	-200,000	0,012	-0,061
-741,356	151,666	-0,178	0,181
-740,342	-89,607	0,032	0,007
-739,327	-129,479	-0,290	0,030
-738,312	354,292	-0,010	0,015
-737,298	-123,133	-0,266	0,031
-736,283	800,000	-0,045	-0,094
-735,269	-29,466	-0,171	0,072
-734,254	800,000	-0,014	-0,039
-733,239	-111,620	-0,380	0,057
-732,225	-193,288	0,130	-0,001
-731,210	733,669	-0,036	-0,073
-730,196	-200,000	0,004	-0,042
-729,181	-29,787	-0,100	0,042
-728,167	1,145	-0,112	-0,060
-727,152	28,128	-0,042	-0,026
-726,137	566,278	-0,050	-0,092
-725,123	-46,338	-0,058	0,021
-724,108	-200,000	0,036	-0,163
-723,094	-115,223	-0,243	-0,034
-722,079	-68,349	-0,055	0,016
-721,064	374,245	-0,028	-0,042
-720,050	598,835	-0,032	0,059
-719,035	43,346	-0,078	-0,053
-718,021	-36,897	-0,096	-0,038
-717,006	69,381	-0,088	-0,068
-715,991	24,045	-0,092	-0,056
-714,977	-200,000	0,019	-0,091
-713,962	140,307	-0,070	-0,069
-712,948	660,827	-0,061	-0,118
-711,933	426,458	-0,089	0,143
-710,918	15,094	0,071	-0,041
-709,904	423,826	-0,051	-0,081
-708,889	-200,000	-0,027	-0,154
-707,875	21,385	-0,070	0,042
-706,860	-200,000	0,002	-0,055
-705,845	12,018	0,113	0,065
-704,831	137,969	-0,079	0,078
-703,816	800,000	0,016	-0,045
-702,802	800,000	-0,079	0,190
-701,787	-200,000	0,015	-0,074
-700,772	-200,000	0,033	-0,126
-699,758	800,000	0,015	0,046
-698,743	-105,177	-0,033	0,006
-697,729	62,243	-0,067	0,050
-696,714	800,000	-0,023	0,066
-695,699	-96,208	0,080	-0,016
-694,685	-200,000	-0,017	-0,066
-693,670	451,304	-0,037	0,061
-692,656	64,749	-0,027	-0,020
-691,641	104,783	-0,041	0,036
-690,627	266,591	0,110	0,144
-689,612	425,942	0,049	-0,079
-688,597	-200,000	0,006	-0,066
-687,583	-30,589	-0,058	-0,024
-686,568	-136,147	-0,121	0,010
-685,554	-76,092	-0,111	0,029
-684,539	-200,000	0,020	0,076
-683,524	288,266	0,058	0,078
-682,510	800,000	0,047	-0,122
-681,495	348,942	-0,080	-0,118
-680,481	117,094	-0,019	0,018
-679,466	90,430	-0,019	-0,016
-678,451	-80,638	0,099	0,024
-677,437	-124,511	0,059	-0,007
-676,422	13,103	0,098	-0,056
-675,408	264,291	-0,042	0,054
-674,393	60,521	0,017	0,012
-673,378	-121,806	-0,117	-0,014
-672,364	-68,064	-0,251	-0,072
-671,349	0,233	0,056	0,030
-670,335	-38,903	-0,056	0,022
-669,320	50,308	0,057	-0,040
-668,305	-200,000	0,025	-0,086
-667,291	800,000	0,023	-0,065
-666,276	-200,000	-0,022	-0,195
-665,262	27,146	0,043	-0,027
-664,247	54,202	-0,094	-0,067
-663,232	718,829	-0,016	-0,031
-662,218	163,106	0,104	0,108
-661,203	-200,000	0,002	0,106
-660,189	54,161	-0,040	0,028
-659,174	-200,000	-0,007	-0,170
-658,159	-200,000	-0,005	0,019
-657,145	-123,191	0,069	-0,008
-656,130	-200,000	-0,010	-0,071
-655,116	-63,960	-0,078	0,024
-654,101	-95,324	0,142	0,028
-653,086	-200,000	-0,018	0,117
-652,072	143,390	0,069	-0,068
-651,057	-200,000	-0,024	-0,122
-650,043	-154,150	-0,078	0,004
-649,028	-9,935	0,044	-0,022
-648,014	-63,549	0,177	-0,054
-646,999	-55,662	-0,193	0,064
-645,984	229,875	0,112	0,136
-644,970	-200,000	-0,001	0,032
-643,955	-78,661	-0,145	-0,037
-642,941	410,469	0,009	-0,014
-641,926	-131,393	0,162	-0,016
-640,911	-17,430	-0,008	-0,004
-639,897	800,000	0,056	0,157
-638,882	-13,495	-0,103	-0,050
-637,868	165,097	0,042	-0,044
-636,853	349,909	-0,102	0,150
-635,838	800,000	0,032	-0,100
-634,824	-140,522	0,083	-0,006
-633,809	-138,696	0,057	-0,005
-632,795	-126,067	-0,146	0,016
-631,780	-200,000	-0,048	0,227
-630,765	-200,000	0,018	0,134
-629,751	563,808	-0,030	-0,055
-628,736	259,541	0,050	-0,064
-627,722	-26,805	-0,176	-0,076
-626,707	462,798	-0,047	-0,078
-625,692	-73,461	0,136	0,037
-624,678	10,205	-0,052	0,029
-623,663	-25,873	-0,024	-0,011
-622,649	611,320	0,063	-0,117
-621,634	-200,000	-0,002	-0,019
-620,619	-31,750	-0,071	-0,030
-619,605	305,971	-0,046	-0,064
-618,590	-200,000	0,001	-0,089
-617,576	-200,000	-0,038	0,148
-616,561	338,538	0,040	0,058
-615,546	-57,807	-0,142	-0,046
-614,532	164,083	-0,061	0,064
-613,517	-200,000	-0,018	-0,169
-612,503	-200,000	0,002	-0,133
-611,488	-3,019	-0,067	-0,035
-610,474	-72,611	-0,062	-0,017
-609,459	-200,000	-0,003	0,069
-608,444	-4,656	-0,041	-0,021
-607,430	800,000	0,025	-0,055
-606,415	259,815	0,090	-0,115
-605,401	-111,309	-0,136	0,020
-604,386	-200,000	0,010	0,063
-603,371	-200,000	0,015	0,090
-602,357	14,213	0,050	0,029
-601,342	-26,722	0,058	0,025
-600,328	373,102	-0,065	-0,099
-599,313	392,510	-0,060	-0,093
-598,298	19,286	-0,010	0,006
-597,284	-127,202	0,093	0,010
-596,269	-30,488	-0,069	0,029
-595,255	263,611	0,045	-0,059
-594,240	-52,539	-0,126	-0,043
-593,225	800,000	0,044	-0,112
-592,211	154,446	-0,046	0,047
-591,196	-200,000	-0,002	-0,091
-590,182	136,398	0,046	-0,044
-589,167	-181,087	0,071	-0,001
-588,152	19,622	0,081	-0,048
-587,138	76,326	-0,213	-0,167
-586,123	-200,000	-0,008	-0,143
-585,109	328,595	-0,121	-0,172
-584,094	-200,000	-0,011	-0,039
-583,079	27,928	0,101	-0,063
-582,065	800,000	-0,016	-0,046
-581,050	-200,000	0,009	-0,151
-580,036	197,411	0,055	0,063
-579,021	800,000	-0,056	0,165
-578,006	63,643	-0,050	-0,037
-576,992	800,000	-0,032	0,099
-575,977	-188,651	0,057	-0,001
-574,963	25,463	0,058	-0,036
-573,948	-131,020	0,115	-0,011
-572,934	800,000	0,007	0,022
-571,919	-200,000	0,002	0,070
-570,904	-94,606	0,178	0,035
-569,890	-200,000	0,000	-0,010
-568,875	-44,300	0,033	0,012
-567,861	205,592	0,071	0,081
-566,846	-131,711	0,178	0,017
-565,831	617,613	0,026	-0,049
-564,817	-73,923	-0,182	-0,049
-563,802	800,000	-0,064	0,154
-562,788	-6,054	-0,134	-0,068
-561,773	17,866	-0,195	-0,115
-560,758	-128,035	0,203	0,021
-559,744	64,478	-0,023	0,017
-558,729	-65,775	-0,134	-0,039
-557,715	-200,000	-0,001	-0,037
-556,700	-94,622	-0,116	-0,023
-555,685	43,948	0,082	0,056
-554,671	318,498	-0,077	0,109
-553,656	-200,000	-0,023	0,175
-552,642	800,000	-0,024	0,069
-551,627	-40,095	-0,131	-0,050
-550,612	-21,183	0,007	-0,003
-549,598	118,864	-0,057	0,052
-548,583	111,455	-0,030	-0,026
-547,569	-200,000	-0,011	-0,132
-546,554	86,479	-0,040	-0,033
-545,539	800,000	0,001	0,004
-544,525	-107,312	0,137	0,022
-543,510	-64,467	0,054	0,016
-542,496	-126,508	-0,054	0,006
-541,481	-200,000	-0,015	-0,191
-540,466	49,440	-0,121	0,084
-539,452	57,849	-0,023	0,017
-538,437	-200,000	-0,030	0,108
-537,423	468,080	0,022	0,037
-536,408	800,000	-0,053	-0,145
-535,393	-200,000	-0,011	-0,100
-534,379	800,000	0,018	-0,040
-533,364	88,778	-0,052	0,043
-532,350	117,744	0,111	0,101
-531,335	-200,000	0,003	0,061
-530,321	415,922	0,040	-0,063
-529,306	97,264	0,106	0,090
-528,291	76,977	-0,119	-0,093
-527,277	101,782	-0,069	-0,059
-526,262	-10,743	0,156	-0,076
-525,248	-200,000	0,007	0,111
-524,233	-83,125	0,048	0,011
-523,218	-142,360	-0,239	-0,017
-522,204	131,843	-0,093	0,088
-521,189	-200,000	0,011	0,080
-520,175	-200,000	0,004	-0,021
-519,160	-33,327	-0,092	-0,037
-518,145	105,086	-0,086	-0,075
-517,131	-200,000	-0,001	0,083
-516,116	474,923	0,020	0,034
-515,102	226,438	-0,056	0,067
-514,087	679,679	0,052	-0,101
-513,072	-42,454	0,126	-0,047
-512,058	128,192	-0,041	-0,038
-511,043	281,605	-0,021	0,028
-510,029	-91,782	0,039	-0,008
-509,014	800,000	0,036	-0,076
-507,999	-1,753	-0,126	-0,065
-506,985	169,027	0,030	-0,031
-505,970	-13,079	-0,101	0,048
-504,956	-200,000	0,050	-0,204
-503,941	-131,360	-0,043	-0,004
-502,926	-200,000	0,002	0,062
-501,912	-200,000	-0,018	-0,134
-500,897	-119,536	-0,109	0,014
-499,883	116,752	-0,105	0,095
-498,868	-15,694	0,021	-0,010
-497,853	521,633	-0,058	-0,100
-496,839	-200,000	0,019	0,187
-495,824	-127,580	0,019	-0,002
-494,810	255,444	-0,052	0,066
-493,795	-200,000	0,018	0,087
-492,781	-19,387	0,032	-0,015
-491,766	151,234	0,048	-0,048
-490,751	-200,000	-0,022	0,094
-489,737	-200,000	0,013	-0,060
-488,722	271,630	0,017	0,023
-487,708	154,044	-0,078	0,079
-486,693	120,416	-0,032	-0,030
-485,678	47,070	0,118	-0,081
-484,664	-200,000	0,010	-0,071
-483,649	-200,000	0,001	-0,110
-482,635	-75,678	0,085	-0,022
-481,620	-112,028	0,133	0,020
-480,605	252,602	-0,055	-0,069
-479,591	-109,454	-0,051	-0,008
-478,576	800,000	0,039	0,088
-477,562	59,765	-0,123	0,090
-476,547	130,896	-0,135	-0,127
-475,532	-200,000	0,002	-0,118
-474,518	-124,890	0,222	-0,025
-473,503	-112,199	-0,106	-0,016
-472,489	-4,819	-0,079	0,040
-471,474	-200,000	-0,009	-0,059
-470,459	-200,000	0,025	0,097
-469,445	39,940	0,044	-0,029
-468,430	5,349	0,120	-0,065
-467,416	12,452	-0,120	-0,068
-466,401	800,000	0,023	0,058
-465,386	279,035	-0,108	-0,143
-464,372	800,000	-0,042	-0,105
-463,357	112,347	-0,048	0,042
-462,343	115,149	-0,141	-0,127
-461,328	-42,880	-0,113	-0,042
-460,313	800,000	0,022	-0,061
-459,299	-200,000	0,000	-0,129
-458,284	113,505	0,064	0,057
-457,270	-200,000	-0,019	0,096
-456,255	-200,000	0,011	0,042
-455,241	592,823	0,128	0,233
-454,226	800,000	0,012	0,039
-453,211	27,131	0,052	-0,032
-452,197	225,924	0,084	0,101
-451,182	-200,000	0,029	0,201
-450,168	-136,159	0,063	0,005
-449,153	-136,404	-0,228	-0,019
-448,138	350,716	-0,056	-0,082
-447,124	683,349	0,021	0,041
-446,109	-200,000	-0,023	0,121
-445,095	149,423	-0,040	0,040
-444,080	-23,392	-0,072	-0,032
-443,065	-200,000	0,001	-0,038
-442,051	-33,248	-0,099	-0,040
-441,036	-200,000	-0,013	0,054
-440,022	12,247	0,077	-0,043
-439,007	50,167	0,072	0,050
-437,992	559,281	-0,065	-0,117
-436,978	-154,396	0,070	0,003
-435,963	-23,634	0,038	-0,017
-434,949	-125,640	-0,096	0,011
-433,934	8,662	-0,002	0,001
-432,919	-13,798	-0,070	0,033
-431,905	497,338	-0,076	-0,129
-430,890	383,434	-0,050	0,076
-429,876	-200,000	0,004	-0,057
-428,861	-116,918	0,090	0,012
-427,846	-12,101	-0,030	0,014
-426,832	-142,509	-0,119	-0,008
-425,817	800,000	-0,020	-0,061
-424,803	-200,000	-0,005	-0,051
-423,788	-116,373	0,117	0,016
-422,773	-82,524	0,071	-0,017
-421,759	-93,470	0,123	-0,025
-420,744	207,349	0,125	0,143
-419,730	-153,983	0,084	0,004
-418,715	-200,000	0,014	-0,052
-417,701	-200,000	-0,018	-0,141
-416,686	-77,616	-0,053	-0,013
-415,671	521,691	0,054	0,093
-414,657	-2,183	-0,007	0,004
-413,642	689,344	0,015	0,028
-412,628	166,028	0,087	0,090
-411,613	-80,806	-0,030	0,007
-410,598	-43,319	-0,055	-0,020
-409,584	196,817	0,073	0,082
-408,569	-177,568	0,151	0,003
-407,555	-112,264	0,156	0,023
-406,540	412,328	-0,013	-0,021
-405,525	-16,225	-0,193	-0,090
-404,511	-200,000	-0,018	0,065
-403,496	-83,275	0,170	0,040
-402,482	213,832	0,091	-0,106
-401,467	300,168	0,029	0,040
-400,452	800,000	-0,051	0,106
-399,438	-200,000	-0,021	0,137
-398,423	800,000	-0,052	0,119
-397,409	-70,216	0,042	-0,012
-396,394	-140,398	-0,205	-0,015
-395,379	-200,000	-0,046	-0,158
-394,365	-98,118	-0,053	-0,010
-393,350	38,574	0,070	0,046
-392,336	-200,000	0,007	-0,066
-391,321	90,107	0,087	-0,071
-390,306	-96,778	0,114	0,022
-389,292	88,323	0,015	0,013
-388,277	-47,222	-0,102	-0,036
-387,263	-200,000	0,005	0,018
-386,248	-200,000	0,029	0,176
-385,233	93,466	-0,031	-0,026
-384,219	423,116	0,033	-0,052
-383,204	-65,045	-0,182	0,054
-382,190	-200,000	0,021	0,150
-381,175	800,000	-0,048	-0,107
-380,160	188,845	0,076	-0,084
-379,146	87,693	0,044	-0,036
-378,131	-153,708	0,053	-0,003
-377,117	-200,000	0,000	0,117
-376,102	287,225	0,036	-0,048
-375,088	-200,000	-0,021	-0,142
-374,073	-10,479	0,058	-0,028
-373,058	-200,000	0,007	-0,041
-372,044	800,000	0,015	-0,031
-371,029	-200,000	0,028	-0,137
-370,015	23,725	-0,064	-0,039
-369,000	126,503	0,035	0,032
-367,985	-44,219	-0,122	-0,045
-366,971	91,101	0,118	-0,097
-365,956	-200,000	-0,013	0,110
-364,942	800,000	-0,020	0,052
-363,927	-74,547	0,085	0,022
-362,912	-143,501	-0,134	0,009
-361,898	-200,000	0,049	0,161
-360,883	-200,000	-0,010	0,034
-359,869	-5,104	0,043	-0,022
-358,854	81,176	-0,108	0,086
-357,839	783,557	-0,022	0,045
-356,825	116,145	0,049	0,044
-355,810	-200,000	0,006	0,027
-354,796	742,289	-0,024	0,047
-353,781	149,559	0,036	0,036
-352,766	78,774	-0,072	0,057
-351,752	-200,000	0,007	-0,025
-350,737	800,000	-0,039	0,109
-349,723	219,687	-0,023	-0,028
-348,708	222,199	0,039	0,046
-347,693	205,296	0,072	-0,082
-346,679	-96,229	-0,067	0,013
-345,664	703,746	0,048	-0,093
-344,650	470,127	-0,035	-0,058
-343,635	-200,000	0,004	0,102
-342,620	-200,000	-0,005	0,141
-341,606	741,736	0,033	0,066
-340,591	-200,000	-0,019	-0,240
-339,577	37,973	-0,077	0,050
-338,562	243,782	-0,042	0,052
-337,548	-200,000	0,047	0,187
-336,533	165,644	0,033	0,034
-335,518	800,000	0,009	0,027
-334,504	574,154	0,052	-0,093
-333,489	-200,000	0,005	0,119
-332,475	26,440	-0,020	0,012
-331,460	25,182	0,029	0,017
-330,445	117,011	0,095	0,086
-329,431	663,959	0,064	0,122
-328,416	-200,000	-0,013	0,098
-327,402	-200,000	0,009	-0,101
-326,387	800,000	0,010	-0,022
-325,372	-93,790	-0,172	0,034
-324,358	-8,958	0,068	-0,033
-323,343	186,673	0,063	0,069
-322,329	-200,000	0,011	0,045
-321,314	-200,000	-0,005	0,025
-320,299	-200,000	0,011	0,100
-319,285	89,144	0,061	0,050
-318,270	-12,628	0,069	0,033
-317,256	-79,252	-0,016	-0,004
-316,241	617,353	-0,007	0,013
-315,226	-87,849	0,053	-0,012
-314,212	538,768	0,054	0,095
-313,197	-200,000	0,014	-0,067
-312,183	206,337	0,033	-0,038
-311,168	322,849	0,071	-0,099
-310,153	93,861	-0,093	-0,077
-309,139	738,659	0,030	0,059
-308,124	194,765	-0,138	-0,153
-307,110	-200,000	0,004	-0,019
-306,095	45,866	0,049	0,033
-305,080	800,000	-0,066	-0,165
-304,066	-26,503	-0,097	-0,042
-303,051	21,083	0,098	0,058
-302,037	-200,000	-0,012	0,059
-301,022	-200,000	-0,000	0,004
-300,008	800,000	0,054	-0,144
-298,993	-200,000	0,018	0,099
-297,978	800,000	0,019	0,060
-296,964	418,435	0,030	-0,047
-295,949	800,000	-0,038	-0,119
-294,935	99,972	0,048	0,041
-293,920	119,557	0,091	0,083
-292,905	-86,943	0,070	0,016
-291,891	129,471	-0,149	0,140
-290,876	612,184	0,068	0,125
-289,862	194,898	0,104	0,115
-288,847	-200,000	-0,026	-0,136
-287,832	-159,625	-0,040	-0,002
-286,818	-104,017	-0,038	-0,006
-285,803	73,321	0,110	0,084
-284,789	79,893	0,009	0,007
-283,774	786,551	-0,055	-0,111
-282,759	387,943	-0,057	-0,087
-281,745	-30,884	-0,080	-0,033
-280,730	-172,212	0,087	-0,002
-279,716	-200,000	0,001	0,064
-278,701	118,412	0,057	0,051
-277,686	-200,000	-0,000	-0,032
-276,672	800,000	-0,035	0,087
-275,657	-152,310	0,055	-0,003
-274,643	-200,000	0,001	0,047
-273,628	126,916	-0,059	0,055
-272,613	800,000	0,033	-0,093
-271,599	-18,778	0,087	0,040
-270,584	-200,000	0,000	0,133
-269,570	-200,000	0,024	0,146
-268,555	7,914	0,019	0,011
-267,540	-140,068	-0,182	-0,014
-266,526	587,075	-0,033	-0,060
-265,511	-90,095	0,057	-0,012
-264,497	-15,664	0,071	-0,033
-263,482	575,412	-0,067	0,120
-262,467	800,000	-0,024	0,061
-261,453	297,158	0,022	-0,029
-260,438	-200,000	-0,001	-0,036
-259,424	250,234	0,031	-0,039
-258,409	60,544	-0,046	-0,034
-257,395	-170,704	0,151	-0,004
-256,380	0,480	0,079	-0,041
-255,365	579,488	0,062	-0,111
-254,351	-200,000	0,021	0,145
-253,336	27,204	0,090	-0,055
-252,322	236,921	-0,031	0,037
-251,307	66,359	-0,119	-0,089
-250,292	255,038	0,083	0,104
-249,278	260,812	-0,094	0,119
-248,263	169,750	-0,095	0,099
-247,249	800,000	0,049	0,102
-246,234	19,695	-0,063	0,037
-245,219	-200,000	-0,014	-0,075
-244,205	800,000	-0,021	-0,047
-243,190	599,075	-0,011	-0,020
-242,176	800,000	0,029	0,079
-241,161	59,428	0,037	-0,027
-240,146	411,634	0,067	0,104
-239,132	48,971	0,073	0,050
-238,117	1,669	-0,050	0,026
-237,103	248,436	-0,067	-0,083
-236,088	96,932	0,073	-0,061
-235,073	-148,994	-0,034	0,002
-234,059	-200,000	0,021	0,100
-233,044	-200,000	-0,006	-0,039
-232,030	269,650	-0,130	-0,167
-231,015	545,359	-0,043	0,076
-230,000	800,000	0,035	-0,099
-228,986	-67,083	0,036	0,010
-227,971	23,011	-0,095	0,057
-226,957	-200,000	0,003	0,093
-225,942	800,000	0,045	-0,122
-224,927	5,864	0,082	-0,044
-223,913	378,058	0,057	-0,085
-222,898	-200,000	0,011	0,065
-221,884	450,911	-0,027	0,043
-220,869	800,000	0,037	0,093
-219,855	-114,239	-0,061	0,008
-218,840	3,664	0,197	-0,105
-217,825	800,000	-0,028	0,064
-216,811	-109,738	0,042	-0,006
-215,796	-200,000	-0,008	0,049
-214,782	9,107	0,097	0,053
-213,767	-150,968	-0,095	-0,005
-212,752	19,058	0,119	0,070
-211,738	27,619	0,104	-0,064
-210,723	-200,000	0,003	-0,113
-209,709	-200,000	-0,004	0,072
-208,694	-65,686	-0,130	0,038
-207,679	800,000	0,049	-0,149
-206,665	-87,447	0,057	-0,012
-205,650	99,575	0,047	0,040
-204,636	128,364	-0,037	0,035
-203,621	-158,020	0,134	-0,006
-202,606	-200,000	-0,031	-0,107
-201,592	-200,000	0,016	-0,061
-200,577	-23,469	-0,095	-0,042
-199,563	492,125	0,031	-0,052
-198,548	61,814	0,073	-0,053
-197,533	-200,000	0,008	0,085
-196,519	-200,000	0,017	-0,067
-195,504	134,382	0,078	0,074
-194,490	-21,042	-0,052	0,023
-193,475	-72,699	-0,060	-0,016
-192,460	-200,000	0,002	0,030
-191,446	-200,000	0,000	0,028
-190,431	-174,675	0,215	0,004
-189,417	-200,000	-0,029	-0,112
-188,402	-97,802	-0,064	0,012
-187,387	-59,160	-0,081	0,025
-186,373	800,000	0,025	0,062
-185,358	-200,000	0,001	-0,123
-184,344	800,000	-0,016	-0,035
-183,329	-6,002	0,039	-0,019
-182,315	-1,718	-0,104	0,053
-181,300	-200,000	0,014	-0,181
-180,285	383,387	-0,037	-0,055
-179,271	89,448	0,072	-0,059
-178,256	479,797	0,044	0,074
-177,242	-101,710	-0,083	-0,015
-176,227	82,499	-0,092	0,073
-175,212	253,047	0,037	-0,047
-174,198	-116,339	-0,069	-0,009
-173,183	-68,315	-0,115	-0,032
-172,169	-124,715	0,043	0,005
-171,154	-38,292	0,081	-0,031
-170,139	59,306	0,085	0,061
-169,125	20,306	0,049	0,029
-168,110	-71,758	0,057	0,015
-167,096	122,218	0,043	0,039
-166,081	240,611	0,091	-0,111
-165,066	-200,000	-0,011	-0,099
-164,052	800,000	0,060	0,160
-163,037	-106,731	0,048	0,008
-162,023	683,376	0,039	-0,074
-161,008	800,000	-0,094	0,210
-159,993	-200,000	-0,004	0,030
-158,979	-53,702	-0,066	-0,022
-157,964	800,000	-0,047	-0,103
-156,950	-200,000	-0,021	-0,169
-155,935	261,113	0,095	0,120
-154,920	-200,000	0,001	0,094
-153,906	185,646	-0,062	-0,067
-152,891	-85,216	0,080	-0,018
-151,877	-200,000	-0,011	-0,041
-150,862	-42,712	0,049	0,018
-149,847	142,500	0,072	0,069
-148,833	-200,000	-0,000	-0,103
-147,818	-200,000	-0,007	-0,064
-146,804	-56,992	0,165	0,053
-145,789	-200,000	0,000	0,025
-144,775	-30,343	-0,150	-0,062
-143,760	559,434	0,014	-0,024
-142,745	102,141	-0,094	-0,080
-141,731	-151,144	0,098	-0,005
-140,716	560,925	0,044	0,078
-139,702	-200,000	0,025	0,112
-138,687	316,875	0,061	-0,084
-137,672	-16,189	-0,055	0,025
-136,658	103,076	-0,074	-0,063
-135,643	233,213	-0,085	0,102
-134,629	221,703	0,093	0,109
-133,614	-152,749	0,165	-0,008
-132,599	-200,000	0,001	0,143
-131,585	-200,000	0,012	-0,049
-130,570	-39,402	-0,166	-0,063
-129,556	800,000	0,022	-0,059
-128,541	297,390	-0,025	0,033
-127,526	327,385	0,042	-0,058
-126,512	509,675	-0,098	-0,167
-125,497	-200,000	-0,021	-0,091
-124,483	800,000	0,039	-0,079
-123,468	-64,346	0,040	0,012
-122,453	-25,893	0,073	-0,031
-121,439	-56,719	-0,061	0,020
-120,424	-169,444	-0,089	-0,002
-119,410	-53,066	-0,070	0,023
