DTS Sentinel unit serial number:	SN410029Multiplexer serial number:	ORYXHardware model number:	OX2-SRSoftware version number:	ORYX F/W v4,00 Oryx Data Collector v3.7.2.0data status	okinstallation	B6 Nyhavnadifferential loss correction	single-endedforward channel	channel 2reverse channel	N/Adate	2023/12/11time	05:35:08forward acquisition time	300,00reverse acquisition time	0,00gamma	499,1914k internal	0,3127k external	0,3127temperature offset calibration	1,0000default loss term (dB/km)	0,3820temperature slope calibration	1,0000multiplexer offset coefficient	1,0000multiplexer slope coefficient	1,0000fibre end	0,00T internal ref (°C)	19,92T ext. ref 1 (°C)	3,08T ext. ref 2 (°C)	3,11length (m)	temperature (°C)	Stokes	anti-Stokes-744,400	245,397	0,100	0,125
-743,385	-96,048	-0,307	0,060
-742,371	-200,000	-0,008	0,107
-741,356	56,426	-0,201	0,145
-740,342	-18,089	0,178	0,083
-739,327	-57,331	-0,292	0,095
-738,312	120,169	0,016	-0,015
-737,298	-104,989	-0,203	0,034
-736,283	-83,286	0,164	0,039
-735,269	-125,921	-0,188	0,021
-734,254	800,000	0,048	0,109
-733,239	-71,894	-0,513	-0,141
-732,225	-200,000	0,270	0,000
-731,210	-69,919	-0,164	0,046
-730,196	-41,407	0,053	0,020
-729,181	-54,789	0,070	-0,023
-728,167	-45,276	-0,052	-0,019
-727,152	-200,000	-0,063	-0,254
-726,137	-81,309	-0,087	0,021
-725,123	-200,000	-0,001	-0,159
-724,108	115,406	-0,089	-0,080
-723,094	228,648	-0,106	-0,129
-722,079	-200,000	0,015	-0,121
-721,064	-46,902	-0,068	0,025
-720,050	-191,885	-0,109	-0,001
-719,035	-59,170	-0,126	0,040
-718,021	-99,432	-0,168	0,031
-717,006	-30,771	-0,094	-0,039
-715,991	3,565	-0,094	0,051
-714,977	800,000	0,046	-0,120
-713,962	-98,657	0,112	-0,021
-712,948	-29,084	-0,097	0,041
-711,933	-37,987	-0,167	-0,066
-710,918	667,725	0,091	-0,176
-709,904	132,996	-0,037	-0,036
-708,889	-200,000	-0,041	-0,146
-707,875	-72,277	-0,075	-0,021
-706,860	-197,143	-0,101	-0,000
-705,845	92,016	-0,105	-0,088
-704,831	-131,725	-0,109	-0,011
-703,816	13,688	0,106	0,061
-702,802	578,339	0,022	-0,041
-701,787	800,000	-0,056	-0,138
-700,772	299,969	0,097	-0,133
-699,758	-65,745	-0,158	0,047
-698,743	32,751	-0,078	0,050
-697,729	-89,528	0,087	0,019
-696,714	-200,000	0,009	-0,030
-695,699	-200,000	-0,001	-0,029
-694,685	-200,000	-0,029	0,120
-693,670	-200,000	0,022	-0,073
-692,656	-200,000	-0,021	-0,158
-691,641	-88,825	0,108	-0,024
-690,627	-180,672	0,053	-0,001
-689,612	-200,000	-0,031	0,134
-688,597	-78,637	-0,114	0,029
-687,583	800,000	0,024	0,053
-686,568	-34,944	-0,099	-0,040
-685,554	66,907	-0,082	-0,062
-684,539	-48,463	0,098	0,035
-683,524	7,192	-0,078	-0,043
-682,510	-84,904	0,084	-0,019
-681,495	-200,000	-0,004	-0,214
-680,481	-200,000	0,021	-0,082
-679,466	108,671	-0,044	-0,039
-678,451	-113,908	-0,048	0,007
-677,437	-53,969	0,100	-0,033
-676,422	58,765	-0,085	0,062
-675,408	-200,000	0,018	0,068
-674,393	800,000	-0,010	-0,032
-673,378	129,116	0,087	-0,083
-672,364	-145,267	-0,161	0,011
-671,349	518,901	0,022	0,038
-670,335	182,494	0,058	-0,064
-669,320	-114,097	-0,080	-0,011
-668,305	175,561	-0,062	0,066
-667,291	-144,790	0,038	0,003
-666,276	800,000	0,026	-0,072
-665,262	-145,052	-0,185	-0,012
-664,247	2,057	0,147	-0,078
-663,232	70,945	0,023	-0,018
-662,218	197,452	0,019	0,021
-661,203	120,651	0,124	-0,115
-660,189	183,906	-0,067	0,073
-659,174	-200,000	0,014	0,056
-658,159	-200,000	-0,046	-0,155
-657,145	-140,585	0,047	-0,004
-656,130	-200,000	-0,033	0,134
-655,116	405,116	-0,068	0,106
-654,101	-47,007	-0,080	0,029
-653,086	-79,807	0,141	0,035
-652,072	-91,896	-0,137	-0,029
-651,057	-17,631	-0,155	-0,072
-650,043	-200,000	0,020	-0,069
-649,028	800,000	-0,049	0,107
-648,014	211,755	0,054	-0,063
-646,999	447,833	0,074	-0,121
-645,984	612,663	0,012	-0,022
-644,970	68,898	-0,048	0,037
-643,955	34,234	0,065	-0,042
-642,941	800,000	-0,051	-0,146
-641,926	24,329	-0,099	-0,061
-640,911	800,000	0,012	-0,033
-639,897	163,558	0,035	0,036
-638,882	-97,127	0,171	-0,033
-637,868	597,887	-0,044	-0,082
-636,853	-200,000	-0,028	-0,119
-635,838	76,540	-0,102	-0,080
-634,824	-67,717	0,006	-0,002
-633,809	-200,000	-0,004	-0,137
-632,795	47,336	-0,144	0,099
-631,780	16,331	-0,078	0,046
-630,765	753,374	-0,075	-0,152
-629,751	-64,759	-0,070	0,021
-628,736	-200,000	0,004	-0,038
-627,722	61,281	-0,020	-0,015
-626,707	-64,409	0,037	-0,011
-625,692	-1,370	0,047	0,025
-624,678	-97,941	0,081	0,015
-623,663	-161,399	0,104	-0,004
-622,649	178,760	-0,048	0,052
-621,634	-200,000	0,005	0,026
-620,619	-33,301	-0,066	-0,027
-619,605	132,084	-0,019	-0,018
-618,590	-200,000	-0,035	0,161
-617,576	-38,887	0,044	-0,017
-616,561	58,468	-0,057	-0,041
-615,546	570,159	0,073	0,133
-614,532	-200,000	-0,005	-0,027
-613,517	-78,362	0,021	-0,005
-612,503	-57,803	-0,017	-0,006
-611,488	-200,000	0,018	0,129
-610,474	-98,831	-0,087	0,016
-609,459	133,083	-0,078	-0,075
-608,444	66,959	-0,027	0,020
-607,430	7,434	-0,065	0,036
-606,415	-56,536	0,050	0,016
-605,401	134,413	-0,041	-0,040
-604,386	-56,483	0,098	0,032
-603,371	-200,000	0,012	-0,131
-602,357	-57,598	-0,124	0,040
-601,342	800,000	0,027	-0,073
-600,328	-200,000	-0,011	-0,046
-599,313	11,997	-0,053	0,030
-598,298	386,402	-0,082	-0,126
-597,284	800,000	-0,026	-0,073
-596,269	686,347	0,090	0,175
-595,255	64,502	-0,050	-0,037
-594,240	329,808	0,054	-0,077
-593,225	-200,000	-0,015	-0,050
-592,211	-88,914	-0,027	-0,006
-591,196	-68,694	0,075	0,021
-590,182	142,805	0,022	-0,022
-589,167	800,000	-0,020	-0,050
-588,152	-113,988	-0,050	-0,007
-587,138	172,404	0,025	0,026
-586,123	45,550	-0,045	0,031
-585,109	282,268	0,048	-0,063
-584,094	-200,000	-0,030	-0,104
-583,079	-200,000	0,017	-0,068
-582,065	119,378	0,057	-0,052
-581,050	-200,000	-0,008	0,156
-580,036	191,876	0,158	-0,177
-579,021	-57,945	-0,208	-0,067
-578,006	-200,000	-0,000	0,006
-576,992	-200,000	-0,165	-0,000
-575,977	56,086	-0,085	0,061
-574,963	-200,000	0,022	0,100
-573,948	-185,103	0,085	0,001
-572,934	183,901	0,066	-0,073
-571,919	-161,184	-0,097	-0,004
-570,904	800,000	0,034	0,084
-569,890	800,000	-0,022	-0,057
-568,875	94,724	0,058	0,048
-567,861	-102,748	0,091	-0,016
-566,846	476,891	-0,035	-0,058
-565,831	-200,000	0,018	0,068
-564,817	69,611	-0,125	0,095
-563,802	-200,000	0,002	-0,069
-562,788	-136,676	-0,057	-0,005
-561,773	52,720	-0,038	-0,027
-560,758	193,266	0,007	-0,008
-559,744	800,000	0,039	0,105
-558,729	1,795	-0,052	0,028
-557,715	-200,000	-0,004	-0,066
-556,700	128,086	-0,081	0,076
-555,685	-200,000	-0,057	-0,219
-554,671	800,000	-0,012	-0,025
-553,656	138,358	-0,039	0,038
-552,642	-200,000	-0,023	-0,132
-551,627	724,507	-0,021	-0,042
-550,612	-3,593	0,085	-0,044
-549,598	-200,000	0,007	-0,081
-548,583	734,009	0,068	-0,135
-547,569	36,526	-0,089	-0,058
-546,554	498,800	-0,091	0,155
-545,539	-35,299	0,069	0,028
-544,525	55,629	-0,057	-0,041
-543,510	-104,624	-0,044	-0,007
-542,496	-68,069	0,122	-0,035
-541,481	-200,000	-0,007	-0,055
-540,466	86,687	0,059	0,048
-539,452	129,398	-0,053	-0,050
-538,437	-69,533	0,157	0,044
-537,423	-200,000	0,013	0,085
-536,408	66,897	-0,045	-0,034
-535,393	-76,506	-0,082	0,021
-534,379	399,514	-0,041	-0,063
-533,364	800,000	0,029	-0,071
-532,350	58,639	0,087	0,063
-531,335	-200,000	-0,003	-0,048
-530,321	-113,869	0,058	-0,008
-529,306	-170,444	0,145	0,004
-528,291	263,936	-0,113	-0,145
-527,277	-73,908	0,129	-0,034
-526,262	-200,000	-0,017	-0,112
-525,248	-128,200	0,186	-0,019
-524,233	11,107	0,040	-0,023
-523,218	-163,076	0,077	0,003
-522,204	-200,000	0,023	-0,087
-521,189	-200,000	-0,006	0,027
-520,175	-34,317	-0,062	0,025
-519,160	92,322	-0,191	-0,159
-518,145	276,899	-0,068	-0,089
-517,131	595,111	0,046	0,084
-516,116	-143,697	-0,125	0,009
-515,102	800,000	0,025	0,053
-514,087	-200,000	0,011	-0,126
-513,072	24,732	0,030	-0,018
-512,058	-100,256	-0,122	-0,022
-511,043	-200,000	0,092	0,000
-510,029	800,000	-0,066	0,179
-509,014	-200,000	0,016	0,140
-507,999	127,566	-0,065	0,061
-506,985	-200,000	0,011	0,224
-505,970	-200,000	-0,013	-0,066
-504,956	-40,694	-0,079	0,030
-503,941	-200,000	-0,011	0,125
-502,926	78,311	-0,051	-0,041
-501,912	-200,000	-0,012	0,079
-500,897	-200,000	-0,020	0,083
-499,883	-200,000	-0,017	0,081
-498,868	5,876	-0,120	-0,066
-497,853	-130,502	-0,063	0,006
-496,839	-96,101	0,136	-0,026
-495,824	-73,386	-0,117	-0,031
-494,810	4,103	-0,063	-0,034
-493,795	-72,451	-0,088	0,024
-492,781	800,000	0,064	0,187
-491,766	800,000	-0,020	0,052
-490,751	-200,000	0,013	-0,158
-489,737	-52,863	0,070	-0,024
-488,722	800,000	-0,079	-0,198
-487,708	-200,000	-0,006	0,048
-486,693	17,510	-0,097	0,057
-485,678	-33,730	0,049	-0,020
-484,664	800,000	-0,044	-0,104
-483,649	-200,000	0,001	-0,062
-482,635	-64,970	0,155	0,046
-481,620	800,000	0,044	0,091
-480,605	-199,129	0,059	-0,000
-479,591	-200,000	0,037	0,133
-478,576	99,266	-0,016	0,013
-477,562	129,267	0,140	-0,131
-476,547	39,390	-0,018	-0,012
-475,532	-200,000	0,008	0,061
-474,518	-200,000	-0,005	0,038
-473,503	-11,551	-0,176	-0,085
-472,489	-66,696	0,029	0,008
-471,474	-45,068	0,024	0,009
-470,459	47,126	0,078	-0,054
-469,445	203,948	0,078	-0,089
-468,430	-70,854	0,045	0,013
-467,416	94,023	0,053	0,044
-466,401	61,501	0,065	0,048
-465,386	800,000	-0,084	0,185
-464,372	479,304	-0,032	0,054
-463,357	513,092	-0,093	-0,161
-462,343	51,094	-0,019	0,013
-461,328	-116,143	-0,123	0,017
-460,313	229,109	-0,099	-0,119
-459,299	-29,373	0,129	0,054
-458,284	-148,015	-0,056	-0,003
-457,270	-200,000	0,023	0,081
-456,255	107,474	0,061	-0,053
-455,241	-200,000	0,006	-0,171
-454,226	-116,680	0,110	-0,015
-453,211	-75,553	0,126	0,033
-452,197	-200,000	0,005	-0,018
-451,182	-6,968	-0,061	0,031
-450,168	-111,586	-0,104	-0,015
-449,153	186,099	-0,019	-0,021
-448,138	-200,000	0,017	0,101
-447,124	-134,632	-0,031	0,003
-446,109	-200,000	0,009	-0,080
-445,095	13,599	0,108	-0,061
-444,080	-43,870	0,008	0,003
-443,065	-33,132	-0,050	-0,020
-442,051	15,457	0,052	0,030
-441,036	-95,356	-0,054	0,011
-440,022	-200,000	0,012	-0,171
-439,007	2,513	0,123	-0,065
-437,992	-68,434	0,074	0,021
-436,978	-33,862	0,067	0,027
-435,963	445,685	0,037	-0,060
-434,949	-200,000	0,010	0,116
-433,934	321,093	-0,029	0,041
-432,919	49,106	0,162	0,112
-431,905	263,450	-0,031	-0,039
-430,890	-200,000	-0,021	0,120
-429,876	400,923	0,053	0,082
-428,861	-200,000	0,003	0,160
-427,846	189,578	0,071	0,079
-426,832	11,982	0,136	-0,077
-425,817	160,305	-0,112	-0,115
-424,803	-200,000	0,007	0,091
-423,788	82,883	0,036	0,028
-422,773	10,127	0,111	0,062
-421,759	594,250	-0,100	0,183
-420,744	247,147	-0,050	-0,062
-419,730	159,688	-0,050	0,051
-418,715	358,552	0,032	-0,047
-417,701	1,246	0,131	-0,069
-416,686	8,906	0,041	0,022
-415,671	17,929	0,018	0,011
-414,657	508,913	0,070	0,119
-413,642	-200,000	0,016	0,069
-412,628	30,680	-0,101	-0,064
-411,613	-102,870	-0,133	0,023
-410,598	-59,164	-0,090	-0,028
-409,584	-200,000	0,000	0,095
-408,569	129,317	-0,096	0,090
-407,555	-200,000	0,008	0,032
-406,540	9,407	-0,128	0,071
-405,525	198,696	-0,044	0,049
-404,511	800,000	-0,026	0,069
-403,496	800,000	-0,075	-0,213
-402,482	-163,198	-0,020	-0,001
-401,467	-200,000	0,009	0,070
-400,452	568,239	0,068	-0,122
-399,438	-200,000	-0,014	-0,105
-398,423	75,190	0,096	0,075
-397,409	-200,000	0,021	0,137
-396,394	-77,091	-0,076	-0,019
-395,379	-41,296	-0,212	0,080
-394,365	-200,000	-0,011	0,040
-393,350	-103,349	0,069	-0,012
-392,336	149,599	-0,099	-0,098
-391,321	23,827	-0,037	-0,022
-390,306	-143,850	0,170	0,012
-389,292	195,999	-0,015	0,017
-388,277	-200,000	-0,006	0,057
-387,263	48,302	0,058	0,040
-386,248	245,333	-0,098	0,121
-385,233	-200,000	-0,014	0,052
-384,219	-38,577	-0,094	-0,036
-383,204	-24,608	-0,112	-0,049
-382,190	800,000	0,031	-0,073
-381,175	-29,265	0,130	-0,054
-380,160	384,283	0,028	-0,043
-379,146	41,393	0,018	0,012
-378,131	118,785	-0,010	0,009
-377,117	800,000	0,018	-0,051
-376,102	225,014	0,092	0,110
-375,088	38,354	0,075	-0,049
-374,073	-5,659	0,157	0,079
-373,058	788,323	0,046	-0,093
-372,044	-73,967	0,103	-0,027
-371,029	370,149	-0,038	0,056
-370,015	-17,889	-0,043	0,020
-369,000	18,517	0,113	0,066
-367,985	-200,000	-0,034	0,140
-366,971	293,466	-0,059	-0,079
-365,956	-200,000	-0,003	0,016
-364,942	-166,996	0,080	0,002
-363,927	800,000	-0,015	0,040
-362,912	156,002	0,034	-0,034
-361,898	60,983	-0,134	-0,097
-360,883	-125,715	-0,109	0,012
-359,869	230,151	-0,101	-0,121
-358,854	131,440	0,031	-0,029
-357,839	22,289	-0,054	0,032
-356,825	302,175	0,078	0,106
-355,810	370,467	-0,062	-0,092
-354,796	-86,709	-0,201	-0,045
-353,781	-93,365	0,027	-0,006
-352,766	-153,359	-0,073	-0,004
-351,752	-167,850	-0,117	0,003
-350,737	800,000	-0,062	0,166
-349,723	184,026	0,087	-0,095
-348,708	-54,949	0,075	-0,025
-347,693	800,000	-0,004	-0,012
-346,679	293,902	0,029	-0,038
-345,664	5,303	0,089	-0,048
-344,650	-200,000	-0,009	-0,053
-343,635	-200,000	-0,008	0,098
-342,620	800,000	0,061	0,148
-341,606	101,210	0,076	0,065
-340,591	-0,312	-0,032	-0,017
-339,577	-200,000	-0,013	-0,107
-338,562	-76,044	0,130	-0,033
-337,548	-134,268	-0,034	0,003
-336,533	7,154	0,155	0,084
-335,518	-150,870	0,109	-0,006
-334,504	-59,055	-0,089	0,028
-333,489	800,000	-0,049	-0,116
-332,475	-200,000	-0,011	-0,054
-331,460	-200,000	0,006	0,021
-330,445	455,303	-0,062	0,101
-329,431	28,313	-0,061	0,037
-328,416	200,411	0,069	0,078
-327,402	90,967	0,116	0,095
-326,387	-34,515	0,065	0,026
-325,372	631,926	-0,063	-0,118
-324,358	-200,000	0,034	0,150
-323,343	144,735	-0,150	0,147
-322,329	171,245	-0,057	0,060
-321,314	215,157	0,056	-0,065
-320,299	-54,200	0,056	-0,019
-319,285	-200,000	0,017	0,075
-318,270	-200,000	-0,013	0,096
-317,256	11,522	-0,062	-0,034
-316,241	77,597	0,038	-0,029
-315,226	800,000	-0,040	0,108
-314,212	800,000	0,037	0,114
-313,197	69,105	0,073	0,055
-312,183	-200,000	0,009	0,088
-311,168	-4,104	-0,061	-0,031
-310,153	-200,000	0,007	0,120
-309,139	-200,000	-0,005	0,045
-308,124	-200,000	0,011	-0,058
-307,110	-107,567	0,081	0,013
-306,095	-17,010	-0,065	-0,030
-305,080	-88,450	-0,028	-0,006
-304,066	800,000	0,030	0,093
-303,051	130,814	0,042	0,040
-302,037	58,430	-0,047	-0,034
-301,022	95,452	-0,056	0,047
-300,008	94,048	0,070	0,058
-298,993	273,561	-0,104	0,135
-297,978	800,000	0,039	-0,094
-296,964	122,685	0,076	0,070
-295,949	-183,746	-0,044	0,001
-294,935	456,849	0,025	-0,040
-293,920	-200,000	0,001	-0,060
-292,905	467,782	0,050	0,083
-291,891	131,996	0,096	0,090
-290,876	-49,512	0,094	-0,032
-289,862	174,399	0,077	0,081
-288,847	230,610	0,061	0,074
-287,832	-200,000	0,025	-0,126
-286,818	-182,378	0,136	0,002
-285,803	134,740	0,082	0,078
-284,789	53,705	0,068	-0,047
-283,774	-200,000	0,031	0,158
-282,759	32,940	-0,114	0,072
-281,745	370,157	-0,019	-0,028
-280,730	34,057	0,093	-0,059
-279,716	-7,332	0,103	-0,051
-278,701	1,787	0,023	-0,012
-277,686	-200,000	-0,005	0,032
-276,672	-200,000	-0,038	0,149
-275,657	746,313	0,057	-0,113
-274,643	-200,000	0,034	-0,177
-273,628	-200,000	-0,026	-0,173
-272,613	-22,898	0,157	0,069
-271,599	458,429	0,039	0,064
-270,584	-49,043	0,102	-0,036
-269,570	58,563	0,142	0,102
-268,555	-130,266	-0,103	0,010
-267,540	-109,657	0,089	-0,014
-266,526	-200,000	0,012	-0,082
-265,511	-183,035	-0,086	-0,001
-264,497	-44,011	-0,055	0,020
-263,482	800,000	0,042	0,121
-262,467	-84,884	0,096	0,022
-261,453	-62,318	-0,105	0,032
-260,438	-200,000	-0,010	0,047
-259,424	226,505	-0,040	0,047
-258,409	800,000	0,051	-0,108
-257,395	-200,000	-0,012	0,060
-256,380	-200,000	0,054	0,204
-255,365	-79,525	0,108	0,027
-254,351	-121,183	-0,134	-0,016
-253,336	-200,000	0,003	0,061
-252,322	-200,000	-0,034	-0,113
-251,307	-37,032	-0,075	0,029
-250,292	-166,236	0,060	0,002
-249,278	-28,006	-0,036	-0,015
-248,263	-200,000	-0,008	-0,081
-247,249	321,270	0,041	-0,057
-246,234	-177,364	-0,035	0,001
-245,219	-149,481	-0,101	-0,006
-244,205	123,805	0,039	-0,036
-243,190	-70,147	-0,133	-0,037
-242,176	-59,323	-0,115	-0,036
-241,161	470,484	-0,035	0,057
-240,146	800,000	-0,030	0,063
-239,132	-40,914	0,081	-0,030
-238,117	-25,852	-0,037	-0,016
-237,103	200,664	-0,082	-0,093
-236,088	365,495	-0,120	0,177
-235,073	41,793	0,034	0,023
-234,059	422,571	0,067	-0,105
-233,044	-37,966	0,158	-0,061
-232,030	-200,000	-0,008	-0,025
-231,015	-200,000	-0,023	-0,146
-230,000	-200,000	-0,039	-0,176
-228,986	-200,000	-0,022	-0,085
-227,971	800,000	-0,015	0,037
-226,957	77,350	-0,064	0,050
-225,942	540,109	0,045	0,079
-224,927	-47,047	-0,085	0,030
-223,913	-200,000	-0,020	-0,099
-222,898	70,445	-0,042	-0,032
-221,884	800,000	-0,021	-0,049
-220,869	270,387	0,094	0,121
-219,855	-134,499	0,134	-0,012
-218,840	6,220	-0,049	-0,026
-217,825	-128,329	-0,138	0,014
-216,811	213,751	0,072	-0,083
-215,796	-172,187	-0,055	0,001
-214,782	51,081	0,148	-0,102
-213,767	800,000	0,031	-0,088
-212,752	170,330	0,053	-0,055
-211,738	322,850	0,019	0,026
-210,723	-200,000	-0,055	0,000
-209,709	153,743	-0,057	-0,057
-208,694	-200,000	0,008	0,072
-207,679	-126,339	-0,096	-0,010
-206,665	-16,350	-0,037	0,017
-205,650	200,913	0,152	0,171
-204,636	-45,466	-0,050	0,018
-203,621	-200,000	0,001	0,053
-202,606	306,813	-0,056	0,076
-201,592	63,617	-0,086	-0,063
-200,577	-157,579	-0,050	0,002
-199,563	-200,000	-0,001	0,024
-198,548	486,286	-0,046	0,077
-197,533	177,556	0,127	0,135
-196,519	-29,809	-0,117	-0,048
-195,504	1,420	-0,097	-0,051
-194,490	-200,000	-0,009	0,045
-193,475	64,072	0,037	-0,027
-192,460	-78,169	-0,066	-0,016
-191,446	800,000	-0,045	0,094
-190,431	219,567	-0,049	0,057
-189,417	-200,000	0,018	0,083
-188,402	-200,000	-0,016	-0,132
-187,387	107,825	-0,070	-0,061
-186,373	-65,922	-0,072	-0,021
-185,358	-200,000	0,004	-0,064
-184,344	51,507	0,118	0,081
-183,329	-195,373	0,068	-0,000
-182,315	267,539	-0,065	0,083
-181,300	-200,000	0,008	-0,036
-180,285	383,774	-0,077	0,116
-179,271	510,379	-0,049	0,083
-178,256	800,000	0,007	0,015
-177,242	147,346	0,068	0,066
-176,227	9,945	0,047	0,026
-175,212	-108,870	0,198	0,031
-174,198	800,000	-0,024	-0,068
-173,183	800,000	0,035	-0,073
-172,169	-200,000	-0,030	-0,213
-171,154	-200,000	-0,004	-0,168
-170,139	442,479	-0,014	-0,022
-169,125	-75,385	-0,026	0,007
-168,110	329,424	0,111	0,155
-167,096	-200,000	0,007	0,126
-166,081	230,796	-0,022	0,026
-165,066	-50,306	0,059	-0,020
-164,052	-59,968	0,091	-0,028
-163,037	800,000	0,046	-0,139
-162,023	800,000	-0,064	-0,135
-161,008	800,000	0,049	0,139
-159,993	25,979	-0,071	-0,043
-158,979	-200,000	0,049	-0,206
-157,964	14,167	-0,095	-0,053
-156,950	-200,000	0,029	-0,169
-155,935	89,722	-0,066	0,053
-154,920	-60,187	0,202	-0,062
-153,906	193,307	-0,055	-0,060
-152,891	-28,896	-0,104	-0,043
-151,877	190,766	-0,115	0,126
-150,862	-130,280	0,073	-0,007
-149,847	-35,770	-0,074	0,029
-148,833	-200,000	0,012	0,038
-147,818	-34,838	0,052	-0,021
-146,804	41,604	-0,074	-0,049
-145,789	389,727	0,084	-0,127
-144,775	-116,775	-0,018	0,002
-143,760	-200,000	-0,001	0,035
-142,745	-44,367	-0,109	-0,039
-141,731	270,155	-0,050	0,064
-140,716	-154,709	-0,053	-0,003
-139,702	-200,000	0,024	-0,130
-138,687	558,846	-0,063	0,111
-137,672	-90,469	-0,080	-0,017
-136,658	-43,158	0,086	-0,032
-135,643	-40,139	-0,096	-0,036
-134,629	800,000	0,005	0,013
-133,614	56,552	0,046	0,033
-132,599	-143,655	0,150	-0,010
-131,585	-200,000	-0,028	0,107
-130,570	235,141	-0,022	0,027
-129,556	264,287	-0,072	-0,091
-128,541	800,000	0,049	-0,109
-127,526	396,562	-0,048	-0,072
-126,512	-83,566	0,078	-0,018
-125,497	37,457	0,114	0,073
-124,483	-200,000	-0,027	0,109
-123,468	800,000	0,042	0,109
-122,453	0,803	0,020	0,010
-121,439	450,323	-0,063	-0,102
-120,424	-6,989	0,093	0,046
-119,410	27,939	0,032	0,019
