DTS Sentinel unit serial number:	SN410029Multiplexer serial number:	ORYXHardware model number:	OX2-SRSoftware version number:	ORYX F/W v4,00 Oryx Data Collector v3.7.2.0data status	okinstallation	B6 Nyhavnadifferential loss correction	single-endedforward channel	channel 2reverse channel	N/Adate	2023/12/09time	05:45:08forward acquisition time	300,00reverse acquisition time	0,00gamma	499,1914k internal	0,3142k external	0,3142temperature offset calibration	1,0000default loss term (dB/km)	0,3820temperature slope calibration	1,0000multiplexer offset coefficient	1,0000multiplexer slope coefficient	1,0000fibre end	0,00T internal ref (°C)	18,10T ext. ref 1 (°C)	2,32T ext. ref 2 (°C)	2,34length (m)	temperature (°C)	Stokes	anti-Stokes-744,400	-200,000	0,005	-0,039
-743,385	-118,701	-0,233	0,030
-742,371	247,130	0,091	0,114
-741,356	38,472	-0,195	0,129
-740,342	-133,076	0,175	-0,016
-739,327	-58,189	-0,187	-0,060
-738,312	800,000	0,043	-0,099
-737,298	-141,510	-0,174	-0,013
-736,283	-153,139	0,086	0,004
-735,269	-49,482	-0,213	0,075
-734,254	3,182	0,023	0,012
-733,239	-47,388	-0,479	-0,172
-732,225	133,580	0,092	0,088
-731,210	800,000	-0,037	-0,076
-730,196	-46,073	-0,069	0,025
-729,181	-200,000	-0,043	-0,194
-728,167	56,134	-0,059	-0,042
-727,152	1,849	-0,125	-0,066
-726,137	463,105	0,064	-0,106
-725,123	11,471	-0,097	-0,055
-724,108	-50,861	0,081	0,028
-723,094	-111,455	-0,170	0,025
-722,079	76,040	-0,083	-0,065
-721,064	800,000	0,035	-0,094
-720,050	169,981	0,113	0,120
-719,035	419,298	-0,097	0,153
-718,021	-200,000	-0,035	-0,156
-717,006	-200,000	0,027	-0,117
-715,991	81,065	-0,176	-0,140
-714,977	800,000	0,037	-0,080
-713,962	800,000	-0,032	-0,067
-712,948	-200,000	-0,012	-0,097
-711,933	338,195	0,060	0,087
-710,918	434,447	0,057	0,091
-709,904	-49,601	0,058	0,020
-708,889	800,000	0,022	-0,055
-707,875	-72,634	-0,080	-0,022
-706,860	254,735	0,008	0,010
-705,845	-200,000	-0,005	0,045
-704,831	629,163	-0,037	0,070
-703,816	800,000	0,056	0,117
-702,802	-200,000	0,004	0,049
-701,787	-200,000	-0,006	-0,064
-700,772	-200,000	-0,006	0,054
-699,758	38,701	0,067	-0,044
-698,743	800,000	0,016	0,038
-697,729	348,149	-0,034	0,050
-696,714	-90,019	0,052	-0,011
-695,699	-74,204	-0,061	-0,016
-694,685	-28,016	-0,095	0,040
-693,670	-12,650	-0,110	-0,053
-692,656	430,990	-0,080	0,129
-691,641	51,821	0,131	0,092
-690,627	-200,000	0,045	0,218
-689,612	-60,884	-0,042	0,013
-688,597	47,593	0,109	-0,075
-687,583	409,658	0,025	0,039
-686,568	253,936	-0,095	-0,120
-685,554	102,620	-0,006	0,005
-684,539	185,560	-0,120	0,132
-683,524	800,000	-0,019	-0,045
-682,510	800,000	0,039	-0,106
-681,495	158,478	-0,014	0,015
-680,481	800,000	0,020	-0,062
-679,466	152,646	-0,037	-0,038
-678,451	125,503	-0,055	0,051
-677,437	-200,000	0,034	0,127
-676,422	285,855	0,061	-0,081
-675,408	39,705	-0,045	0,030
-674,393	800,000	-0,033	0,100
-673,378	45,976	-0,078	0,053
-672,364	-200,000	-0,020	-0,084
-671,349	-32,125	0,041	-0,017
-670,335	-105,457	0,075	-0,013
-669,320	172,254	-0,057	-0,061
-668,305	-200,000	-0,013	-0,115
-667,291	251,432	-0,099	0,125
-666,276	47,144	-0,024	-0,016
-665,262	173,133	-0,108	-0,115
-664,247	-49,687	-0,122	0,043
-663,232	103,984	0,037	-0,032
-662,218	-26,032	-0,065	0,028
-661,203	-21,770	-0,037	-0,017
-660,189	-79,841	-0,127	0,031
-659,174	-200,000	-0,005	-0,128
-658,159	-200,000	0,022	-0,078
-657,145	-113,769	0,064	0,009
-656,130	-200,000	0,014	0,125
-655,116	-72,894	0,184	-0,050
-654,101	142,745	0,053	-0,052
-653,086	-200,000	0,006	-0,116
-652,072	101,775	-0,063	0,054
-651,057	-55,957	-0,104	-0,034
-650,043	115,252	0,094	-0,085
-649,028	141,113	-0,048	-0,047
-648,014	234,511	0,032	0,039
-646,999	800,000	-0,077	0,158
-645,984	800,000	0,016	0,043
-644,970	-125,546	0,080	-0,009
-643,955	344,970	0,026	-0,038
-642,941	261,136	-0,112	-0,144
-641,926	-200,000	0,010	0,080
-640,911	200,664	-0,066	-0,075
-639,897	778,881	0,062	0,126
-638,882	8,554	-0,220	-0,122
-637,868	461,956	-0,055	0,091
-636,853	-200,000	-0,014	0,062
-635,838	363,898	-0,013	-0,020
-634,824	327,232	0,109	-0,154
-633,809	-5,582	0,110	0,055
-632,795	800,000	-0,044	0,102
-631,780	1,575	-0,041	-0,022
-630,765	227,416	0,077	0,092
-629,751	-57,733	-0,104	-0,033
-628,736	-5,067	-0,037	0,019
-627,722	-200,000	-0,007	-0,107
-626,707	-133,182	0,004	-0,000
-625,692	800,000	-0,063	0,153
-624,678	566,323	0,057	-0,103
-623,663	109,178	-0,083	-0,073
-622,649	588,539	0,035	-0,063
-621,634	349,058	-0,055	-0,080
-620,619	-81,321	0,151	0,037
-619,605	231,449	-0,036	0,044
-618,590	-200,000	-0,011	-0,041
-617,576	-200,000	0,021	0,178
-616,561	370,770	0,013	-0,020
-615,546	-196,080	-0,082	-0,000
-614,532	800,000	-0,059	-0,153
-613,517	-200,000	-0,012	-0,138
-612,503	-105,693	-0,106	0,017
-611,488	-200,000	-0,001	-0,051
-610,474	800,000	0,047	0,138
-609,459	-164,651	-0,053	0,002
-608,444	15,637	-0,137	-0,079
-607,430	-147,926	-0,059	-0,004
-606,415	23,032	-0,060	-0,036
-605,401	-200,000	0,006	0,077
-604,386	-200,000	-0,013	-0,078
-603,371	144,627	0,033	0,033
-602,357	-99,411	0,093	-0,017
-601,342	2,530	-0,058	0,031
-600,328	-85,825	-0,098	-0,022
-599,313	-200,000	0,004	0,036
-598,298	-152,925	0,115	0,006
-597,284	-83,637	0,135	-0,032
-596,269	800,000	0,074	0,213
-595,255	-95,935	0,121	0,023
-594,240	-200,000	-0,015	-0,099
-593,225	-12,845	-0,053	-0,025
-592,211	-200,000	0,024	0,093
-591,196	144,552	-0,110	0,108
-590,182	800,000	0,046	0,129
-589,167	88,244	-0,079	0,065
-588,152	189,514	-0,060	-0,066
-587,138	-200,000	0,003	0,016
-586,123	157,673	0,055	0,056
-585,109	32,832	-0,046	-0,029
-584,094	10,527	-0,021	-0,012
-583,079	-66,070	-0,115	-0,034
-582,065	441,922	0,014	0,022
-581,050	115,394	0,029	0,026
-580,036	800,000	-0,022	0,050
-579,021	618,206	-0,072	-0,134
-578,006	99,178	0,050	0,043
-576,992	295,663	0,057	-0,076
-575,977	274,400	0,051	0,067
-574,963	800,000	0,038	0,113
-573,948	-200,000	0,012	0,061
-572,934	45,297	0,084	-0,057
-571,919	-200,000	0,008	0,026
-570,904	-200,000	-0,015	-0,082
-569,890	-64,504	-0,042	-0,012
-568,875	309,536	-0,038	-0,052
-567,861	-38,263	-0,047	-0,018
-566,846	800,000	-0,014	-0,030
-565,831	800,000	0,038	0,081
-564,817	800,000	-0,047	-0,140
-563,802	-185,314	-0,044	0,000
-562,788	-75,985	-0,111	-0,029
-561,773	-200,000	0,044	-0,145
-560,758	-106,084	-0,092	-0,015
-559,744	-169,060	0,010	0,000
-558,729	-164,313	-0,185	-0,006
-557,715	800,000	0,039	-0,095
-556,700	27,887	-0,102	0,063
-555,685	-102,206	0,068	-0,012
-554,671	138,231	-0,191	0,184
-553,656	-141,142	0,078	-0,006
-552,642	-97,706	0,160	0,030
-551,627	108,578	0,051	0,045
-550,612	800,000	-0,041	-0,115
-549,598	800,000	0,016	-0,051
-548,583	44,615	-0,103	0,069
-547,569	800,000	0,033	0,088
-546,554	40,177	0,006	0,004
-545,539	-107,216	0,118	0,019
-544,525	-95,153	-0,057	0,011
-543,510	-200,000	0,005	-0,019
-542,496	108,459	-0,142	-0,125
-541,481	345,887	-0,061	0,089
-540,466	278,077	0,032	-0,042
-539,452	353,963	-0,022	0,033
-538,437	-49,225	0,049	-0,017
-537,423	500,161	-0,046	0,078
-536,408	-52,798	-0,128	-0,043
-535,393	-200,000	-0,006	-0,091
-534,379	-18,256	-0,052	0,024
-533,364	-200,000	-0,026	-0,107
-532,350	516,830	-0,029	-0,050
-531,335	-56,811	-0,015	-0,005
-530,321	800,000	-0,033	-0,088
-529,306	800,000	-0,015	-0,038
-528,291	800,000	0,039	-0,117
-527,277	158,310	0,067	-0,069
-526,262	-200,000	-0,018	0,170
-525,248	647,438	0,050	-0,094
-524,233	-183,002	0,134	-0,002
-523,218	50,731	0,095	0,066
-522,204	-68,198	-0,151	-0,043
-521,189	-200,000	-0,009	0,094
-520,175	800,000	0,051	-0,124
-519,160	-200,000	-0,019	-0,079
-518,145	800,000	-0,004	0,010
-517,131	261,707	0,028	0,035
-516,116	348,545	-0,010	0,015
-515,102	250,510	-0,088	0,111
-514,087	-200,000	0,015	0,107
-513,072	-200,000	-0,016	-0,111
-512,058	7,941	0,119	-0,065
-511,043	-200,000	-0,004	0,020
-510,029	-121,617	-0,067	-0,008
-509,014	-200,000	-0,004	0,036
-507,999	-200,000	0,027	0,095
-506,985	487,799	-0,087	0,146
-505,970	-22,854	-0,077	-0,034
-504,956	320,215	0,072	0,101
-503,941	-200,000	-0,010	0,051
-502,926	113,410	-0,142	0,126
-501,912	-200,000	-0,012	-0,054
-500,897	279,039	-0,053	0,070
-499,883	-137,236	0,067	0,006
-498,868	-51,401	-0,049	-0,017
-497,853	-200,000	-0,021	0,082
-496,839	-200,000	-0,013	0,074
-495,824	4,632	0,055	-0,030
-494,810	122,995	0,098	-0,090
-493,795	-200,000	-0,005	-0,064
-492,781	-200,000	0,001	0,095
-491,766	101,673	0,055	-0,047
-490,751	-200,000	-0,028	0,113
-489,737	-200,000	-0,006	0,044
-488,722	-200,000	0,023	-0,085
-487,708	240,920	0,122	0,149
-486,693	-200,000	-0,009	0,105
-485,678	-49,906	0,047	0,016
-484,664	333,847	0,006	0,008
-483,649	70,216	0,056	-0,042
-482,635	-200,000	-0,008	-0,057
-481,620	-200,000	0,043	0,165
-480,605	743,271	0,033	-0,064
-479,591	-200,000	0,006	0,022
-478,576	-39,070	-0,070	0,027
-477,562	-110,799	-0,124	0,019
-476,547	-17,677	0,047	-0,022
-475,532	-97,036	-0,034	0,006
-474,518	340,342	-0,106	-0,152
-473,503	800,000	-0,016	-0,033
-472,489	253,638	0,010	0,012
-471,474	158,147	-0,129	-0,131
-470,459	-200,000	-0,020	0,114
-469,445	471,430	-0,017	0,029
-468,430	52,051	-0,069	-0,048
-467,416	800,000	0,047	0,099
-466,401	-77,828	0,043	-0,011
-465,386	131,223	-0,061	0,057
-464,372	-99,794	0,155	0,028
-463,357	-105,442	0,069	0,011
-462,343	800,000	-0,022	-0,059
-461,328	-200,000	-0,009	-0,110
-460,313	-200,000	0,031	0,200
-459,299	-184,938	0,228	-0,003
-458,284	-200,000	-0,004	-0,145
-457,270	800,000	-0,031	0,065
-456,255	800,000	-0,046	0,099
-455,241	423,110	0,086	0,136
-454,226	-200,000	0,026	0,087
-453,211	-200,000	0,020	0,082
-452,197	-189,095	-0,044	-0,000
-451,182	-200,000	-0,006	-0,163
-450,168	325,201	-0,031	0,043
-449,153	-200,000	0,010	0,114
-448,138	-103,053	-0,014	-0,002
-447,124	800,000	-0,054	-0,151
-446,109	-41,497	-0,053	-0,020
-445,095	-18,220	0,101	-0,046
-444,080	800,000	0,047	0,133
-443,065	-58,691	0,073	-0,023
-442,051	800,000	-0,020	-0,054
-441,036	-200,000	0,004	0,016
-440,022	66,838	0,031	-0,023
-439,007	53,323	0,026	-0,018
-437,992	-200,000	0,039	-0,131
-436,978	57,182	-0,046	-0,033
-435,963	91,198	-0,013	0,011
-434,949	402,452	0,045	-0,069
-433,934	-160,420	-0,077	-0,003
-432,919	-200,000	-0,004	0,066
-431,905	106,171	0,073	0,063
-430,890	800,000	0,028	-0,065
-429,876	800,000	-0,058	0,126
-428,861	259,409	0,076	0,096
-427,846	-200,000	-0,003	-0,039
-426,832	278,504	-0,080	-0,105
-425,817	-200,000	-0,019	-0,108
-424,803	22,915	0,047	-0,028
-423,788	800,000	0,021	0,052
-422,773	-77,337	-0,001	-0,000
-421,759	18,544	0,036	0,021
-420,744	-49,715	-0,064	0,022
-419,730	-138,556	0,024	0,002
-418,715	241,755	-0,047	-0,058
-417,701	-200,000	0,006	-0,050
-416,686	313,539	-0,026	0,037
-415,671	-200,000	0,003	0,011
-414,657	208,594	0,078	0,089
-413,642	-22,106	0,014	-0,006
-412,628	256,645	0,032	-0,040
-411,613	111,564	-0,123	-0,109
-410,598	-200,000	0,011	0,043
-409,584	80,477	0,068	-0,053
-408,569	61,184	0,092	0,067
-407,555	-200,000	-0,007	0,172
-406,540	10,677	-0,058	0,032
-405,525	-38,713	-0,061	0,023
-404,511	800,000	-0,084	-0,208
-403,496	-99,169	-0,165	-0,030
-402,482	-200,000	-0,026	-0,107
-401,467	3,290	0,126	-0,067
-400,452	704,610	-0,040	0,077
-399,438	-110,957	0,179	0,027
-398,423	-64,882	-0,120	0,035
-397,409	-200,000	0,006	-0,035
-396,394	-200,000	-0,007	0,052
-395,379	800,000	0,026	0,060
-394,365	20,985	0,082	0,049
-393,350	76,545	0,098	0,076
-392,336	-103,966	-0,042	0,007
-391,321	-33,358	-0,142	-0,057
-390,306	-102,657	0,140	0,024
-389,292	-76,582	-0,054	-0,014
-388,277	139,726	-0,115	-0,110
-387,263	59,673	0,075	-0,054
-386,248	-137,875	0,160	0,013
-385,233	661,777	0,043	0,082
-384,219	-40,344	0,135	-0,051
-383,204	194,586	-0,105	-0,117
-382,190	548,258	0,044	-0,078
-381,175	-10,316	0,147	0,071
-380,160	212,597	0,100	-0,115
-379,146	-200,000	-0,017	0,060
-378,131	1,633	0,062	-0,032
-377,117	800,000	0,024	-0,069
-376,102	230,328	-0,031	-0,037
-375,088	-14,161	-0,051	-0,024
-374,073	-6,415	0,088	-0,044
-373,058	446,257	-0,034	-0,054
-372,044	800,000	-0,027	0,071
-371,029	-79,683	0,014	0,004
-370,015	283,214	0,030	0,039
-369,000	-200,000	-0,000	-0,048
-367,985	-77,185	-0,092	-0,023
-366,971	314,509	-0,018	-0,025
-365,956	-86,981	-0,024	-0,005
-364,942	800,000	0,078	0,205
-363,927	174,245	-0,089	0,094
-362,912	-61,615	0,086	-0,026
-361,898	-66,346	0,047	-0,014
-360,883	555,157	-0,071	-0,125
-359,869	-16,575	-0,061	-0,028
-358,854	-200,000	0,021	-0,097
-357,839	-156,564	0,136	0,006
-356,825	83,273	0,076	0,061
-355,810	-200,000	0,001	0,037
-354,796	26,473	-0,145	-0,088
-353,781	-200,000	-0,004	0,089
-352,766	213,534	-0,135	-0,156
-351,752	-58,032	-0,048	-0,015
-350,737	423,225	0,018	-0,029
-349,723	75,956	-0,012	0,009
-348,708	132,954	0,098	-0,093
-347,693	-31,467	-0,090	-0,037
-346,679	185,745	-0,022	-0,024
-345,664	165,018	-0,074	0,076
-344,650	-194,154	-0,065	0,000
-343,635	-200,000	-0,007	0,026
-342,620	-6,042	0,071	-0,035
-341,606	35,338	0,054	-0,034
-340,591	-37,895	-0,070	-0,027
-339,577	53,195	0,098	0,068
-338,562	62,378	0,048	-0,035
-337,548	-5,904	0,127	0,063
-336,533	800,000	0,026	0,059
-335,518	800,000	0,029	-0,079
-334,504	496,238	0,070	0,118
-333,489	454,685	0,030	0,048
-332,475	485,780	-0,034	0,056
-331,460	78,949	-0,159	-0,124
-330,445	59,906	-0,057	0,041
-329,431	178,081	0,081	0,086
-328,416	181,955	-0,044	0,047
-327,402	-200,000	-0,022	-0,102
-326,387	-40,839	0,115	-0,043
-325,372	-36,449	-0,074	0,029
-324,358	153,639	-0,055	0,055
-323,343	187,868	0,005	0,006
-322,329	-200,000	0,004	-0,046
-321,314	-200,000	0,012	0,077
-320,299	800,000	0,040	0,090
-319,285	243,933	-0,083	-0,101
-318,270	-200,000	-0,006	-0,043
-317,256	-111,237	-0,122	0,018
-316,241	600,841	0,038	0,068
-315,226	263,008	0,023	-0,029
-314,212	-79,312	0,095	-0,023
-313,197	-200,000	0,005	0,128
-312,183	36,926	-0,026	0,017
-311,168	-114,673	0,062	-0,009
-310,153	188,093	-0,074	-0,081
-309,139	-174,779	0,103	0,002
-308,124	195,890	-0,035	-0,039
-307,110	216,667	0,118	0,137
-306,095	-19,724	0,047	0,021
-305,080	133,663	0,030	-0,028
-304,066	401,512	0,053	-0,082
-303,051	188,415	-0,113	-0,123
-302,037	-67,131	-0,054	-0,015
-301,022	55,736	-0,128	-0,090
-300,008	2,469	0,044	-0,023
-298,993	-97,971	-0,099	-0,018
-297,978	14,468	-0,050	0,028
-296,964	-200,000	0,011	-0,063
-295,949	8,703	-0,106	-0,058
-294,935	-43,524	-0,087	-0,032
-293,920	-200,000	-0,014	0,128
-292,905	47,574	0,026	0,017
-291,891	-200,000	-0,025	0,134
-290,876	-37,607	0,055	0,021
-289,862	16,629	0,100	-0,057
-288,847	-128,024	0,107	-0,011
-287,832	-122,100	-0,117	-0,014
-286,818	-200,000	0,031	-0,122
-285,803	-200,000	-0,002	0,111
-284,789	135,323	0,053	-0,050
-283,774	350,324	-0,019	-0,027
-282,759	69,213	-0,037	-0,028
-281,745	-200,000	0,021	-0,070
-280,730	-191,572	0,094	0,001
-279,716	-160,128	-0,104	-0,004
-278,701	377,813	0,073	-0,109
-277,686	800,000	0,027	0,068
-276,672	587,905	0,022	-0,040
-275,657	-200,000	-0,014	-0,100
-274,643	234,050	-0,104	0,125
-273,628	170,085	-0,103	0,107
-272,613	30,992	0,088	0,055
-271,599	20,972	-0,098	0,058
-270,584	-22,175	-0,062	0,027
-269,570	-96,449	-0,028	-0,005
-268,555	68,831	-0,105	0,079
-267,540	8,648	-0,086	-0,047
-266,526	-161,027	0,107	0,004
-265,511	-96,023	-0,087	-0,017
-264,497	-90,048	0,058	-0,012
-263,482	3,524	0,045	0,024
-262,467	130,784	0,114	-0,107
-261,453	-24,315	0,030	0,013
-260,438	27,503	-0,109	0,067
-259,424	-200,000	0,003	-0,086
-258,409	-90,937	0,083	-0,017
-257,395	800,000	-0,006	-0,015
-256,380	-39,810	0,043	0,016
-255,365	54,786	0,046	-0,032
-254,351	19,363	-0,062	0,036
-253,336	758,371	-0,056	-0,110
-252,322	-10,797	-0,032	-0,015
-251,307	34,053	-0,112	0,071
-250,292	110,054	0,180	0,157
-249,278	-110,648	0,126	0,019
-248,263	-190,062	-0,080	-0,001
-247,249	476,129	-0,045	-0,073
-246,234	309,758	0,036	-0,049
-245,219	135,486	0,015	0,014
-244,205	-79,019	-0,140	-0,034
-243,190	-139,838	0,082	-0,006
-242,176	-200,000	0,020	0,080
-241,161	196,000	0,034	-0,037
-240,146	736,291	-0,024	-0,046
-239,132	429,623	-0,019	0,030
-238,117	-8,070	0,113	0,055
-237,103	145,595	-0,096	-0,093
-236,088	349,167	0,097	-0,140
-235,073	-200,000	-0,006	-0,052
-234,059	-200,000	0,010	0,085
-233,044	-200,000	0,004	0,080
-232,030	-200,000	0,000	-0,050
-231,015	-200,000	-0,039	-0,132
-230,000	115,566	-0,043	-0,038
-228,986	800,000	0,015	0,043
-227,971	-200,000	0,005	0,082
-226,957	-132,735	-0,091	-0,008
-225,942	-130,969	-0,125	0,012
-224,927	21,871	-0,056	0,033
-223,913	620,573	0,016	0,029
-222,898	516,748	0,052	-0,088
-221,884	-200,000	0,007	0,060
-220,869	73,173	-0,059	-0,045
-219,855	187,405	0,085	0,092
-218,840	71,733	0,079	-0,060
-217,825	-200,000	0,009	-0,105
-216,811	-150,855	0,053	-0,003
-215,796	-200,000	-0,009	0,067
-214,782	-105,292	0,186	0,030
-213,767	-200,000	0,005	0,069
-212,752	1,731	0,081	0,042
-211,738	368,577	0,021	0,031
-210,723	-61,099	0,148	-0,045
-209,709	21,037	-0,083	0,049
-208,694	-19,259	0,111	-0,050
-207,679	587,104	-0,055	-0,099
-206,665	430,316	-0,027	0,043
-205,650	88,585	0,054	0,044
-204,636	4,501	0,138	0,073
-203,621	-200,000	0,027	0,093
-202,606	-200,000	0,013	0,191
-201,592	157,547	0,095	0,096
-200,577	-200,000	0,010	-0,053
-199,563	-168,527	-0,031	-0,001
-198,548	294,671	0,034	0,046
-197,533	234,707	0,074	0,088
-196,519	800,000	-0,067	0,209
-195,504	302,734	0,021	0,029
-194,490	-200,000	0,011	-0,101
-193,475	321,315	0,024	0,034
-192,460	125,859	-0,095	0,087
-191,446	-144,382	-0,052	0,003
-190,431	-147,846	0,079	-0,005
-189,417	-200,000	-0,022	0,078
-188,402	-73,071	-0,098	-0,026
-187,387	212,365	-0,017	-0,019
-186,373	800,000	0,006	0,013
-185,358	-200,000	0,004	-0,093
-184,344	5,156	0,068	-0,036
-183,329	-67,459	0,014	-0,004
-182,315	734,331	-0,048	0,094
-181,300	-200,000	-0,001	-0,044
-180,285	-147,730	-0,057	-0,003
-179,271	800,000	-0,046	-0,102
-178,256	77,513	0,081	-0,062
-177,242	189,516	0,076	0,082
-176,227	-92,562	-0,073	0,015
-175,212	521,726	0,046	-0,079
-174,198	119,179	0,045	-0,041
-173,183	68,068	0,062	-0,046
-172,169	459,858	0,051	-0,083
-171,154	330,049	0,068	-0,095
-170,139	-200,000	0,007	-0,099
-169,125	-76,336	-0,056	0,014
-168,110	-96,360	0,115	-0,022
-167,096	217,595	-0,036	-0,042
-166,081	-63,037	-0,034	-0,010
-165,066	102,520	0,105	0,089
-164,052	-200,000	0,011	-0,110
-163,037	46,584	0,063	-0,043
-162,023	273,802	0,069	0,089
-161,008	-5,791	0,048	-0,024
-159,993	-200,000	0,010	0,078
-158,979	-200,000	-0,009	-0,113
-157,964	278,121	-0,091	-0,117
-156,950	186,092	-0,088	-0,095
-155,935	114,559	-0,061	0,054
-154,920	-200,000	-0,004	0,084
-153,906	93,908	-0,035	-0,028
-152,891	800,000	-0,019	-0,056
-151,877	189,919	0,067	0,073
-150,862	-200,000	-0,017	-0,137
-149,847	-50,617	-0,139	0,047
-148,833	-121,027	0,168	0,020
-147,818	-23,821	0,124	0,054
-146,804	-200,000	-0,016	0,104
-145,789	-135,853	0,079	-0,007
-144,775	-50,193	0,054	0,018
-143,760	-200,000	-0,035	-0,129
-142,745	800,000	-0,027	-0,080
-141,731	5,560	0,048	-0,025
-140,716	-200,000	-0,004	-0,040
-139,702	-200,000	-0,024	-0,084
-138,687	-165,571	-0,162	0,005
-137,672	93,424	-0,099	0,081
-136,658	-142,064	0,062	-0,004
-135,643	-200,000	0,014	-0,131
-134,629	-200,000	0,006	-0,081
-133,614	-31,772	0,104	-0,042
-132,599	800,000	-0,045	0,134
-131,585	570,322	-0,041	-0,073
-130,570	-94,282	-0,114	-0,022
-129,556	124,884	-0,024	0,022
-128,541	-200,000	-0,001	-0,066
-127,526	521,892	-0,062	0,105
-126,512	-200,000	0,013	0,083
-125,497	-77,743	-0,132	-0,033
-124,483	-200,000	-0,004	0,041
-123,468	86,366	-0,062	-0,050
-122,453	-200,000	-0,016	0,102
-121,439	-200,000	-0,005	-0,096
-120,424	120,511	0,094	-0,085
-119,410	-83,921	0,078	-0,018
