DTS Sentinel unit serial number:	SN410029Multiplexer serial number:	ORYXHardware model number:	OX2-SRSoftware version number:	ORYX F/W v4,00 Oryx Data Collector v3.7.2.0data status	okinstallation	B6 Nyhavnadifferential loss correction	single-endedforward channel	channel 2reverse channel	N/Adate	2023/12/08time	22:00:08forward acquisition time	300,00reverse acquisition time	0,00gamma	499,1914k internal	0,3157k external	0,3157temperature offset calibration	1,0000default loss term (dB/km)	0,3820temperature slope calibration	1,0000multiplexer offset coefficient	1,0000multiplexer slope coefficient	1,0000fibre end	0,00T internal ref (°C)	15,25T ext. ref 1 (°C)	-1,22T ext. ref 2 (°C)	-1,22length (m)	temperature (°C)	Stokes	anti-Stokes-744,400	165,851	-0,067	-0,070
-743,385	-142,736	-0,341	-0,024
-742,371	-200,000	-0,007	-0,135
-741,356	-23,222	-0,234	-0,103
-740,342	754,800	0,014	0,029
-739,327	-124,806	-0,435	0,049
-738,312	-94,438	0,108	0,021
-737,298	19,746	-0,197	-0,117
-736,283	126,182	-0,033	-0,031
-735,269	-95,747	-0,158	0,031
-734,254	549,258	0,060	0,107
-733,239	7,081	-0,374	-0,205
-732,225	-55,851	0,248	0,081
-731,210	-110,590	-0,155	0,023
-730,196	-200,000	-0,005	-0,106
-729,181	253,037	-0,029	-0,037
-728,167	20,972	-0,070	-0,042
-727,152	11,433	-0,172	-0,097
-726,137	-200,000	0,026	-0,114
-725,123	-43,274	-0,199	0,074
-724,108	-200,000	0,023	-0,102
-723,094	238,491	-0,093	-0,114
-722,079	800,000	0,041	-0,108
-721,064	-37,543	0,064	-0,025
-720,050	-200,000	0,002	-0,049
-719,035	62,681	0,024	-0,018
-718,021	-116,817	-0,017	0,002
-717,006	800,000	-0,044	-0,107
-715,991	800,000	-0,009	-0,027
-714,977	-98,129	-0,127	-0,024
-713,962	-14,697	-0,118	-0,056
-712,948	-26,492	0,101	0,043
-711,933	-24,475	-0,077	-0,034
-710,918	-123,951	-0,047	-0,005
-709,904	-200,000	-0,109	-0,000
-708,889	-200,000	-0,020	0,083
-707,875	106,955	0,102	-0,090
-706,860	-200,000	-0,009	-0,043
-705,845	-68,757	0,031	0,009
-704,831	-200,000	-0,013	0,058
-703,816	5,489	0,037	0,020
-702,802	-200,000	-0,022	-0,126
-701,787	-200,000	-0,003	-0,033
-700,772	465,871	-0,059	-0,098
-699,758	-42,510	-0,139	0,052
-698,743	13,310	-0,069	-0,039
-697,729	-200,000	0,001	0,040
-696,714	279,200	-0,048	-0,064
-695,699	-121,429	-0,083	0,010
-694,685	-43,273	0,072	0,026
-693,670	-200,000	-0,027	-0,107
-692,656	56,796	-0,169	-0,121
-691,641	162,062	0,074	-0,076
-690,627	34,003	-0,022	-0,014
-689,612	-53,267	0,016	-0,005
-688,597	49,319	-0,115	0,080
-687,583	-200,000	-0,005	-0,056
-686,568	148,182	-0,083	-0,082
-685,554	-7,608	0,190	-0,094
-684,539	-115,252	-0,046	0,006
-683,524	79,793	0,087	0,069
-682,510	-200,000	-0,005	-0,038
-681,495	-148,007	0,050	0,003
-680,481	11,424	0,041	-0,023
-679,466	-65,003	-0,166	0,049
-678,451	260,617	-0,047	-0,060
-677,437	-200,000	0,002	0,026
-676,422	490,984	0,061	-0,103
-675,408	800,000	0,039	-0,104
-674,393	89,404	0,151	-0,124
-673,378	800,000	-0,019	0,052
-672,364	126,372	-0,188	0,175
-671,349	-200,000	0,010	-0,056
-670,335	352,132	0,060	0,087
-669,320	-88,788	0,095	0,021
-668,305	96,862	-0,160	-0,135
-667,291	414,802	-0,027	-0,043
-666,276	-59,483	-0,175	0,055
-665,262	-175,600	0,084	-0,002
-664,247	96,308	-0,044	-0,037
-663,232	27,077	-0,048	-0,029
-662,218	-52,312	-0,093	-0,031
-661,203	-91,665	-0,097	0,020
-660,189	12,739	0,148	-0,084
-659,174	-200,000	-0,005	0,092
-658,159	245,037	0,084	-0,104
-657,145	498,065	0,040	-0,067
-656,130	-200,000	-0,009	0,103
-655,116	-200,000	0,023	0,126
-654,101	31,717	0,116	0,073
-653,086	-200,000	-0,009	-0,053
-652,072	357,661	0,011	0,016
-651,057	-93,694	-0,021	0,004
-650,043	800,000	0,034	-0,110
-649,028	-200,000	-0,005	-0,047
-648,014	800,000	-0,022	0,072
-646,999	-178,159	0,089	0,002
-645,984	-200,000	0,006	-0,046
-644,970	13,637	0,039	-0,022
-643,955	-200,000	-0,006	-0,113
-642,941	-45,280	-0,083	-0,030
-641,926	-138,985	-0,017	0,001
-640,911	-200,000	-0,010	0,059
-639,897	26,877	0,100	0,062
-638,882	379,220	0,060	-0,090
-637,868	-200,000	0,006	0,056
-636,853	70,821	-0,111	-0,084
-635,838	-74,933	-0,161	-0,042
-634,824	-96,543	-0,154	0,029
-633,809	1,029	0,164	0,086
-632,795	-72,971	0,106	-0,029
-631,780	74,066	-0,086	0,066
-630,765	-89,942	-0,196	-0,042
-629,751	-200,000	-0,016	-0,112
-628,736	-200,000	-0,024	0,110
-627,722	266,466	0,071	-0,091
-626,707	123,613	-0,050	-0,046
-625,692	670,557	0,021	-0,040
-624,678	-200,000	0,028	0,105
-623,663	800,000	0,017	0,044
-622,649	-85,076	-0,069	0,016
-621,634	800,000	0,020	-0,043
-620,619	422,520	-0,056	-0,089
-619,605	70,106	0,099	0,075
-618,590	-200,000	-0,005	0,128
-617,576	107,738	-0,104	0,091
-616,561	-26,246	-0,090	0,038
-615,546	449,271	-0,106	-0,172
-614,532	528,696	-0,074	-0,129
-613,517	57,597	-0,078	-0,056
-612,503	41,115	0,093	-0,062
-611,488	-200,000	0,010	-0,072
-610,474	-49,375	0,110	-0,038
-609,459	347,496	0,053	0,077
-608,444	22,913	0,034	0,020
-607,430	0,177	-0,105	-0,055
-606,415	800,000	-0,038	0,098
-605,401	-200,000	0,015	0,063
-604,386	710,305	0,026	-0,051
-603,371	93,499	-0,055	0,046
-602,357	-124,758	-0,074	0,008
-601,342	54,969	-0,039	-0,027
-600,328	-200,000	0,009	-0,170
-599,313	-200,000	-0,015	-0,058
-598,298	-200,000	-0,050	0,180
-597,284	-38,304	-0,090	-0,035
-596,269	666,181	0,025	-0,047
-595,255	41,253	-0,152	0,101
-594,240	176,365	-0,061	-0,065
-593,225	-200,000	-0,045	-0,174
-592,211	-20,140	-0,055	0,025
-591,196	747,389	-0,015	0,030
-590,182	800,000	-0,034	-0,077
-589,167	-99,975	0,076	-0,014
-588,152	-200,000	0,005	-0,064
-587,138	84,154	-0,035	-0,028
-586,123	68,219	-0,129	0,097
-585,109	0,601	-0,079	0,041
-584,094	-112,804	-0,058	0,008
-583,079	-82,833	-0,075	-0,018
-582,065	440,471	0,061	0,098
-581,050	-200,000	0,007	0,029
-580,036	800,000	-0,024	0,051
-579,021	-10,984	-0,131	0,063
-578,006	-200,000	-0,038	-0,156
-576,992	23,053	0,073	-0,044
-575,977	800,000	0,070	0,176
-574,963	-157,157	-0,179	0,008
-573,948	800,000	0,031	-0,083
-572,934	96,550	0,078	-0,066
-571,919	134,298	-0,120	-0,114
-570,904	-89,219	-0,033	0,007
-569,890	-83,500	-0,096	0,022
-568,875	308,125	0,125	-0,171
-567,861	800,000	0,038	-0,082
-566,846	800,000	-0,037	0,106
-565,831	0,878	-0,069	-0,036
-564,817	-22,403	-0,008	-0,003
-563,802	44,704	-0,083	-0,056
-562,788	-200,000	0,009	-0,094
-561,773	556,130	0,031	-0,055
-560,758	-41,725	0,172	0,064
-559,744	53,301	0,074	0,052
-558,729	-186,854	-0,047	0,000
-557,715	47,500	-0,024	-0,016
-556,700	28,393	-0,146	-0,090
-555,685	-200,000	-0,013	-0,063
-554,671	209,781	-0,026	0,030
-553,656	449,703	-0,056	0,091
-552,642	192,493	0,013	0,015
-551,627	146,688	-0,085	-0,084
-550,612	52,259	-0,066	-0,046
-549,598	-200,000	-0,011	-0,072
-548,583	800,000	-0,025	-0,062
-547,569	102,697	0,110	-0,094
-546,554	800,000	0,056	0,176
-545,539	204,502	0,119	0,135
-544,525	-47,686	0,128	0,045
-543,510	-78,300	-0,107	0,027
-542,496	172,933	0,121	-0,127
-541,481	8,883	-0,100	-0,055
-540,466	-11,598	-0,016	-0,008
-539,452	-200,000	-0,000	0,029
-538,437	568,153	-0,062	0,111
-537,423	51,881	0,082	-0,057
-536,408	187,216	0,037	-0,040
-535,393	84,985	-0,079	-0,063
-534,379	3,609	-0,032	-0,017
-533,364	677,278	-0,058	-0,110
-532,350	-50,235	-0,079	-0,027
-531,335	800,000	-0,023	0,064
-530,321	549,442	0,046	0,081
-529,306	-6,338	-0,011	-0,005
-528,291	-102,755	-0,126	-0,022
-527,277	-99,986	-0,077	-0,014
-526,262	-123,150	0,128	-0,015
-525,248	220,536	0,067	-0,079
-524,233	225,572	0,088	0,105
-523,218	274,199	0,051	0,066
-522,204	-181,245	-0,048	0,001
-521,189	37,518	-0,133	-0,086
-520,175	800,000	-0,027	-0,085
-519,160	551,681	0,028	-0,050
-518,145	-30,488	-0,102	-0,042
-517,131	-162,083	-0,075	-0,003
-516,116	800,000	-0,038	0,099
-515,102	286,467	0,144	-0,190
-514,087	-188,711	-0,157	-0,001
-513,072	800,000	0,066	-0,169
-512,058	-200,000	-0,039	0,137
-511,043	512,175	-0,044	0,075
-510,029	133,283	0,060	0,057
-509,014	126,237	0,046	-0,042
-507,999	-200,000	-0,024	0,103
-506,985	85,030	-0,209	-0,167
-505,970	-26,359	-0,070	-0,030
-504,956	238,646	-0,074	-0,090
-503,941	-200,000	0,006	0,052
-502,926	-82,942	-0,030	0,007
-501,912	-200,000	-0,019	-0,070
-500,897	588,061	0,032	0,058
-499,883	-200,000	-0,002	0,100
-498,868	237,262	-0,039	-0,048
-497,853	-200,000	0,013	-0,061
-496,839	60,845	0,050	0,036
-495,824	-65,089	0,085	0,025
-494,810	-161,056	-0,101	-0,004
-493,795	775,540	-0,029	0,058
-492,781	-192,838	-0,116	0,001
-491,766	-200,000	-0,033	0,133
-490,751	-48,846	-0,064	-0,022
-489,737	-200,000	0,037	0,151
-488,722	-32,622	0,138	0,056
-487,708	-27,159	-0,044	0,019
-486,693	-2,938	-0,047	0,024
-485,678	-200,000	0,011	-0,087
-484,664	-111,105	0,066	-0,010
-483,649	95,679	-0,023	0,019
-482,635	-200,000	-0,005	0,054
-481,620	752,049	-0,056	0,110
-480,605	493,953	0,062	0,104
-479,591	-200,000	-0,019	-0,067
-478,576	-101,681	0,084	-0,015
-477,562	146,857	0,062	-0,061
-476,547	-46,067	-0,075	-0,027
-475,532	-135,090	0,066	0,006
-474,518	269,318	-0,015	-0,019
-473,503	524,301	-0,046	0,080
-472,489	-200,000	-0,010	-0,096
-471,474	42,783	0,049	-0,032
-470,459	31,706	-0,116	-0,072
-469,445	-12,866	-0,057	-0,027
-468,430	-127,866	-0,047	-0,005
-467,416	-34,855	-0,066	0,026
-466,401	-200,000	0,008	-0,061
-465,386	26,126	0,057	-0,035
-464,372	-174,882	0,059	0,001
-463,357	-58,283	-0,042	0,013
-462,343	-200,000	0,038	0,140
-461,328	-200,000	0,007	-0,119
-460,313	-139,922	-0,092	0,007
-459,299	-2,621	0,127	0,065
-458,284	-200,000	-0,021	-0,082
-457,270	800,000	-0,026	-0,080
-456,255	-55,998	0,042	-0,014
-455,241	-200,000	-0,010	-0,077
-454,226	74,972	-0,095	-0,073
-453,211	48,706	0,044	0,030
-452,197	800,000	0,056	0,132
-451,182	388,813	-0,062	-0,093
-450,168	-146,667	0,083	-0,005
-449,153	601,465	-0,042	0,077
-448,138	-200,000	0,006	-0,051
-447,124	-200,000	-0,006	0,041
-446,109	-200,000	-0,007	-0,028
-445,095	555,057	0,034	-0,060
-444,080	800,000	-0,017	-0,052
-443,065	-200,000	-0,018	0,104
-442,051	-200,000	0,019	0,095
-441,036	-14,514	0,027	0,013
-440,022	227,766	-0,045	0,053
-439,007	12,863	0,104	0,058
-437,992	89,113	-0,090	0,073
-436,978	-200,000	-0,015	0,093
-435,963	57,045	-0,091	0,064
-434,949	800,000	0,030	0,072
-433,934	109,495	0,051	-0,044
-432,919	-200,000	0,058	-0,195
-431,905	-144,875	-0,099	0,006
-430,890	-153,383	0,079	0,004
-429,876	-31,719	0,080	0,033
-428,861	-200,000	-0,005	0,031
-427,846	-115,317	0,054	0,007
-426,832	126,514	-0,046	0,043
-425,817	34,344	-0,037	-0,023
-424,803	800,000	0,007	-0,018
-423,788	-57,469	0,136	-0,043
-422,773	-200,000	-0,001	0,049
-421,759	800,000	0,028	0,084
-420,744	-177,995	0,208	-0,004
-419,730	-95,254	-0,019	0,004
-418,715	800,000	0,037	0,111
-417,701	-24,001	0,154	0,067
-416,686	38,559	0,080	0,052
-415,671	-180,913	0,090	0,001
-414,657	800,000	0,027	0,055
-413,642	800,000	-0,066	0,139
-412,628	-78,925	-0,037	0,009
-411,613	445,568	-0,046	0,074
-410,598	-200,000	0,008	-0,106
-409,584	230,221	0,038	-0,045
-408,569	-200,000	0,035	-0,113
-407,555	-200,000	0,024	0,136
-406,540	-47,292	-0,015	0,005
-405,525	219,337	0,082	0,096
-404,511	-92,560	0,237	-0,048
-403,496	-159,454	-0,179	0,007
-402,482	243,851	-0,065	0,080
-401,467	-142,701	0,070	-0,005
-400,452	154,306	0,067	-0,067
-399,438	300,943	-0,027	0,037
-398,423	-76,922	-0,029	0,007
-397,409	-31,007	-0,158	-0,065
-396,394	-200,000	0,011	-0,175
-395,379	517,353	0,048	0,081
-394,365	800,000	0,045	0,102
-393,350	-21,770	0,022	0,010
-392,336	60,459	-0,055	0,040
-391,321	800,000	0,029	0,088
-390,306	16,587	0,082	-0,047
-389,292	-200,000	0,005	-0,058
-388,277	-200,000	0,012	-0,174
-387,263	-200,000	-0,001	0,131
-386,248	-1,668	-0,080	-0,041
-385,233	-106,858	0,055	0,009
-384,219	137,845	-0,096	-0,092
-383,204	-49,472	0,048	-0,017
-382,190	-200,000	0,011	-0,088
-381,175	-109,606	0,097	0,015
-380,160	354,975	-0,117	-0,170
-379,146	71,668	0,105	0,079
-378,131	259,280	-0,012	-0,015
-377,117	696,659	0,039	-0,074
-376,102	-101,952	-0,116	0,020
-375,088	-200,000	-0,141	-0,000
-374,073	100,582	-0,110	-0,093
-373,058	-200,000	0,018	0,058
-372,044	67,112	0,044	0,033
-371,029	142,256	0,075	0,072
-370,015	238,429	-0,016	0,020
-369,000	26,912	-0,043	0,026
-367,985	8,993	0,057	0,031
-366,971	-200,000	0,001	0,039
-365,956	455,679	0,061	0,099
-364,942	-85,019	0,131	0,030
-363,927	-200,000	0,013	-0,112
-362,912	713,167	-0,045	0,087
-361,898	410,068	-0,032	0,049
-360,883	101,650	0,054	-0,046
-359,869	702,649	-0,007	-0,013
-358,854	237,942	0,020	0,024
-357,839	-103,993	0,047	0,008
-356,825	-151,002	0,192	0,010
-355,810	-135,617	-0,073	0,006
-354,796	-200,000	0,041	0,142
-353,781	85,543	0,027	-0,022
-352,766	58,051	0,022	-0,016
-351,752	18,610	0,085	0,049
-350,737	-200,000	-0,021	0,078
-349,723	-200,000	-0,016	0,063
-348,708	658,747	0,028	0,052
-347,693	-114,923	0,141	-0,019
-346,679	-200,000	-0,011	-0,125
-345,664	-51,282	-0,090	-0,030
-344,650	800,000	-0,028	0,073
-343,635	215,183	-0,054	-0,062
-342,620	8,828	0,021	0,011
-341,606	287,233	0,065	0,085
-340,591	800,000	-0,039	-0,109
-339,577	-200,000	0,019	-0,144
-338,562	81,055	-0,092	0,072
-337,548	-23,275	-0,074	0,032
-336,533	-9,542	0,053	0,026
-335,518	152,910	-0,091	-0,090
-334,504	-200,000	-0,010	0,037
-333,489	82,577	0,054	-0,043
-332,475	57,560	-0,073	-0,052
-331,460	-200,000	-0,008	-0,042
-330,445	-101,290	-0,053	0,009
-329,431	6,564	0,103	-0,056
-328,416	-5,930	0,215	0,106
-327,402	-200,000	0,026	0,083
-326,387	-200,000	-0,003	-0,061
-325,372	-200,000	0,019	-0,082
-324,358	-174,436	0,100	0,002
-323,343	105,013	0,039	0,033
-322,329	-61,985	0,032	0,010
-321,314	216,557	0,044	-0,051
-320,299	38,434	-0,025	0,016
-319,285	131,104	-0,024	-0,022
-318,270	181,945	0,100	-0,107
-317,256	-20,948	-0,145	0,064
-316,241	249,440	-0,070	-0,086
-315,226	12,523	0,063	0,035
-314,212	-189,829	0,068	-0,001
-313,197	800,000	0,021	0,048
-312,183	-137,192	0,105	-0,009
-311,168	800,000	-0,010	0,021
-310,153	148,519	0,093	0,091
-309,139	160,850	0,025	0,025
-308,124	39,961	-0,144	-0,094
-307,110	-91,218	0,189	0,039
-306,095	800,000	-0,024	-0,069
-305,080	393,147	0,057	-0,087
-304,066	102,579	-0,077	0,065
-303,051	-150,893	-0,075	0,004
-302,037	-200,000	-0,021	0,094
-301,022	165,114	0,064	-0,066
-300,008	345,602	-0,074	0,105
-298,993	-85,450	0,088	0,020
-297,978	-135,186	0,024	-0,002
-296,964	-144,067	0,090	-0,006
-295,949	-200,000	-0,009	0,054
-294,935	-200,000	-0,016	0,061
-293,920	-86,535	-0,081	0,018
-292,905	21,228	0,136	0,080
-291,891	79,296	-0,025	0,020
-290,876	-200,000	0,000	0,036
-289,862	-57,843	0,090	0,028
-288,847	278,199	-0,058	0,075
-287,832	-200,000	0,021	-0,139
-286,818	234,586	-0,006	0,008
-285,803	292,526	0,057	0,076
-284,789	414,277	-0,017	-0,027
-283,774	-9,156	-0,015	0,007
-282,759	-7,531	0,117	0,057
-281,745	38,136	-0,108	-0,069
-280,730	124,060	-0,103	-0,094
-279,716	-200,000	0,001	-0,099
-278,701	81,109	0,053	0,042
-277,686	-176,798	0,067	-0,001
-276,672	77,811	0,044	-0,034
-275,657	-200,000	-0,004	-0,033
-274,643	-44,227	-0,076	-0,027
-273,628	274,835	0,076	-0,097
-272,613	-200,000	-0,003	0,038
-271,599	-142,854	0,125	0,009
-270,584	592,402	-0,011	0,019
-269,570	-114,786	-0,077	-0,011
-268,555	49,937	-0,107	-0,073
-267,540	703,469	0,018	0,034
-266,526	644,713	-0,040	0,075
-265,511	521,606	0,037	-0,064
-264,497	-69,940	0,030	0,008
-263,482	-200,000	-0,019	0,081
-262,467	-200,000	0,047	-0,184
-261,453	-200,000	0,001	0,059
-260,438	71,314	-0,067	0,050
-259,424	800,000	-0,014	-0,042
-258,409	-135,019	-0,084	-0,007
-257,395	-122,231	0,180	0,021
-256,380	67,323	-0,020	-0,015
-255,365	148,130	0,062	0,060
-254,351	-200,000	-0,006	0,107
-253,336	800,000	0,025	0,063
-252,322	-20,230	0,019	0,008
-251,307	748,613	-0,041	-0,080
-250,292	-160,489	-0,043	0,002
-249,278	173,931	0,056	0,059
-248,263	800,000	-0,019	-0,049
-247,249	354,679	-0,081	0,117
-246,234	34,913	0,111	-0,070
-245,219	343,135	0,080	-0,114
-244,205	-50,073	0,112	-0,038
-243,190	395,656	0,088	0,134
-242,176	-87,156	0,035	-0,008
-241,161	85,249	0,099	-0,078
-240,146	515,399	0,070	-0,119
-239,132	-200,000	-0,009	-0,069
-238,117	108,596	-0,034	0,030
-237,103	545,097	0,029	0,050
-236,088	-119,103	0,137	-0,017
-235,073	-171,091	0,108	-0,003
-234,059	-200,000	0,002	0,013
-233,044	-73,564	-0,065	0,017
-232,030	129,108	0,091	0,084
-231,015	800,000	0,045	-0,140
-230,000	-200,000	-0,013	-0,094
-228,986	-162,809	0,047	0,002
-227,971	800,000	-0,024	0,058
-226,957	373,828	0,062	0,092
-225,942	-200,000	0,021	0,174
-224,927	-77,992	0,015	0,004
-223,913	188,219	-0,077	0,083
-222,898	-200,000	0,009	-0,103
-221,884	258,689	0,053	-0,066
-220,869	280,563	0,014	-0,018
-219,855	451,977	-0,031	-0,049
-218,840	-36,592	0,045	0,017
-217,825	-45,858	-0,103	0,037
-216,811	537,965	0,031	-0,053
-215,796	-200,000	-0,005	0,018
-214,782	-128,367	-0,179	-0,018
-213,767	148,623	0,064	0,062
-212,752	800,000	0,004	0,009
-211,738	-38,096	-0,035	-0,013
-210,723	800,000	-0,062	0,159
-209,709	-30,773	-0,013	-0,005
-208,694	-106,381	0,128	-0,020
-207,679	-200,000	0,023	-0,139
-206,665	-200,000	-0,004	-0,020
-205,650	-200,000	-0,032	-0,111
-204,636	-40,234	-0,033	0,012
-203,621	213,101	-0,065	-0,074
-202,606	-23,835	0,073	0,032
-201,592	108,305	-0,102	0,088
-200,577	-18,213	-0,132	-0,059
-199,563	-200,000	0,011	-0,035
-198,548	-26,173	0,130	-0,055
-197,533	800,000	-0,017	-0,043
-196,519	-20,495	0,066	-0,029
-195,504	32,872	-0,069	-0,043
-194,490	-54,613	-0,055	-0,018
-193,475	-200,000	0,015	-0,070
-192,460	95,463	-0,058	0,048
-191,446	346,438	0,127	0,181
-190,431	45,630	0,116	0,077
-189,417	497,023	0,017	0,029
-188,402	151,086	-0,034	-0,034
-187,387	754,102	-0,030	0,059
-186,373	-49,035	-0,127	-0,044
-185,358	789,655	-0,036	-0,071
-184,344	-90,745	0,045	0,009
-183,329	-200,000	0,012	0,073
-182,315	25,407	-0,086	0,051
-181,300	800,000	0,021	0,044
-180,285	-200,000	0,004	-0,029
-179,271	-99,187	-0,110	0,020
-178,256	-109,032	0,077	0,012
-177,242	350,829	-0,018	0,025
-176,227	-200,000	0,014	-0,058
-175,212	18,088	0,060	0,034
-174,198	202,239	-0,081	0,090
-173,183	-48,137	-0,089	0,031
-172,169	208,806	-0,064	-0,073
-171,154	-145,351	-0,053	-0,003
-170,139	0,576	0,023	-0,012
-169,125	-74,487	0,095	0,024
-168,110	-112,033	0,063	0,009
-167,096	33,018	0,088	0,055
-166,081	-200,000	-0,021	-0,117
-165,066	-64,102	-0,017	-0,005
-164,052	21,498	0,057	0,033
-163,037	158,018	-0,076	-0,076
-162,023	-200,000	-0,007	0,036
-161,008	-200,000	0,046	0,160
-159,993	800,000	0,043	0,124
-158,979	-107,841	0,110	0,017
-157,964	-200,000	-0,008	-0,074
-156,950	308,432	0,022	-0,029
-155,935	-19,116	-0,072	-0,032
-154,920	-200,000	-0,017	0,087
-153,906	-200,000	-0,009	0,140
-152,891	-45,564	-0,118	0,042
-151,877	800,000	-0,061	0,152
-150,862	800,000	0,039	0,088
-149,847	520,718	-0,015	0,025
-148,833	242,843	-0,056	-0,067
-147,818	-200,000	0,001	0,023
-146,804	-200,000	0,027	0,211
-145,789	317,805	0,078	-0,107
-144,775	800,000	0,034	0,069
-143,760	288,929	-0,115	-0,150
-142,745	39,799	0,088	0,057
-141,731	-82,473	-0,075	0,017
-140,716	300,065	0,013	-0,018
-139,702	778,352	0,057	0,112
-138,687	-81,826	0,052	0,012
-137,672	33,646	-0,015	0,009
-136,658	195,157	-0,050	-0,055
-135,643	21,640	0,044	0,026
-134,629	17,583	-0,039	-0,022
-133,614	-200,000	0,006	0,072
-132,599	161,735	-0,019	0,019
-131,585	-164,754	0,160	-0,005
-130,570	-114,377	-0,150	-0,021
-129,556	223,873	0,023	0,027
-128,541	19,585	-0,083	-0,048
-127,526	19,699	0,139	0,080
-126,512	-144,469	0,142	0,009
-125,497	23,620	-0,112	0,066
-124,483	85,478	0,042	0,033
-123,468	-200,000	0,001	-0,070
-122,453	-32,479	-0,119	0,048
-121,439	161,197	-0,101	-0,102
-120,424	800,000	-0,023	-0,071
-119,410	-200,000	-0,027	-0,137
