DTS Sentinel unit serial number:	SN410029Multiplexer serial number:	ORYXHardware model number:	OX2-SRSoftware version number:	ORYX F/W v4,00 Oryx Data Collector v3.7.2.0data status	okinstallation	B6 Nyhavnadifferential loss correction	single-endedforward channel	channel 2reverse channel	N/Adate	2023/12/07time	21:20:08forward acquisition time	300,00reverse acquisition time	0,00gamma	499,1914k internal	0,3164k external	0,3164temperature offset calibration	1,0000default loss term (dB/km)	0,3820temperature slope calibration	1,0000multiplexer offset coefficient	1,0000multiplexer slope coefficient	1,0000fibre end	0,00T internal ref (°C)	13,70T ext. ref 1 (°C)	-3,19T ext. ref 2 (°C)	-3,19length (m)	temperature (°C)	Stokes	anti-Stokes-744,400	-119,202	0,188	0,024
-743,385	-128,213	-0,273	0,028
-742,371	-49,287	0,170	0,059
-741,356	-82,413	-0,360	-0,085
-740,342	71,448	0,206	0,158
-739,327	-80,054	-0,393	0,096
-738,312	-18,550	0,156	0,071
-737,298	-110,051	-0,377	-0,057
-736,283	-37,201	0,168	0,066
-735,269	-54,049	-0,173	-0,058
-734,254	0,214	0,135	-0,071
-733,239	-4,359	-0,362	-0,183
-732,225	-89,131	0,119	0,026
-731,210	184,528	0,108	0,118
-730,196	285,653	-0,024	-0,032
-729,181	-200,000	-0,201	-0,000
-728,167	-200,000	-0,001	-0,059
-727,152	13,737	-0,071	0,041
-726,137	800,000	-0,066	-0,140
-725,123	-200,000	-0,022	-0,077
-724,108	3,228	-0,082	0,044
-723,094	-200,000	-0,002	0,037
-722,079	-14,517	0,068	0,032
-721,064	362,294	0,014	-0,020
-720,050	19,603	-0,180	-0,106
-719,035	401,740	0,023	-0,035
-718,021	-123,921	0,082	-0,009
-717,006	175,256	-0,147	-0,157
-715,991	427,183	0,064	-0,101
-714,977	-76,778	-0,083	-0,021
-713,962	-200,000	-0,044	-0,176
-712,948	-166,636	-0,088	0,003
-711,933	-200,000	0,002	-0,033
-710,918	372,896	-0,152	-0,228
-709,904	706,270	-0,031	-0,060
-708,889	-20,747	0,051	0,023
-707,875	-200,000	-0,005	-0,078
-706,860	617,960	0,059	-0,109
-705,845	800,000	0,048	0,126
-704,831	-131,634	-0,066	0,006
-703,816	-200,000	0,014	0,131
-702,802	-97,202	0,117	0,022
-701,787	-46,258	-0,126	-0,045
-700,772	603,388	-0,024	0,044
-699,758	137,501	-0,098	-0,094
-698,743	-150,406	-0,034	-0,002
-697,729	-168,856	-0,119	0,003
-696,714	-57,580	0,127	0,041
-695,699	582,876	0,083	-0,150
-694,685	272,161	-0,087	0,113
-693,670	100,561	0,033	0,028
-692,656	83,921	-0,096	-0,077
-691,641	115,318	0,054	-0,049
-690,627	658,089	0,031	-0,059
-689,612	-69,847	-0,040	-0,011
-688,597	-131,511	0,078	-0,007
-687,583	177,267	-0,093	-0,099
-686,568	-197,421	-0,083	0,000
-685,554	-200,000	0,006	-0,078
-684,539	316,283	0,058	-0,080
-683,524	-104,453	-0,101	0,017
-682,510	92,208	0,004	0,003
-681,495	631,586	0,042	-0,078
-680,481	800,000	-0,023	0,053
-679,466	-126,019	0,057	-0,006
-678,451	-30,539	-0,047	-0,019
-677,437	-200,000	0,006	-0,058
-676,422	800,000	0,002	-0,005
-675,408	-147,274	0,050	-0,003
-674,393	645,803	-0,048	-0,090
-673,378	17,231	-0,132	-0,077
-672,364	-76,447	0,144	-0,037
-671,349	312,035	-0,101	-0,140
-670,335	274,056	0,037	0,048
-669,320	-16,754	0,119	0,055
-668,305	-121,147	0,093	0,011
-667,291	197,970	-0,042	-0,047
-666,276	265,362	-0,036	-0,046
-665,262	-194,156	-0,071	0,000
-664,247	241,261	0,024	-0,029
-663,232	-91,170	0,079	0,017
-662,218	463,155	0,016	-0,026
-661,203	-200,000	-0,000	-0,077
-660,189	510,778	-0,055	0,095
-659,174	-200,000	0,011	-0,055
-658,159	-200,000	-0,002	-0,126
-657,145	5,087	0,112	0,060
-656,130	244,867	0,022	-0,027
-655,116	-200,000	-0,008	-0,130
-654,101	800,000	0,058	0,140
-653,086	416,826	-0,038	0,059
-652,072	214,859	-0,108	-0,126
-651,057	492,577	-0,086	-0,144
-650,043	265,906	0,106	-0,136
-649,028	-133,694	0,090	-0,008
-648,014	800,000	0,069	0,161
-646,999	-200,000	-0,002	0,046
-645,984	96,849	-0,009	0,008
-644,970	42,001	-0,080	-0,053
-643,955	164,064	0,033	0,035
-642,941	47,724	-0,064	0,043
-641,926	100,263	0,078	-0,066
-640,911	454,240	0,053	0,087
-639,897	47,694	-0,082	0,056
-638,882	-145,548	-0,215	0,014
-637,868	76,694	-0,075	-0,058
-636,853	-26,258	0,037	0,016
-635,838	365,773	-0,046	-0,068
-634,824	-200,000	0,004	0,094
-633,809	456,563	-0,095	0,156
-632,795	8,990	-0,088	0,049
-631,780	-123,882	0,050	0,006
-630,765	800,000	-0,041	0,096
-629,751	-200,000	-0,008	-0,078
-628,736	-50,499	-0,241	-0,083
-627,722	800,000	0,021	0,055
-626,707	-93,786	0,074	0,015
-625,692	138,840	-0,082	0,079
-624,678	-36,564	-0,070	0,027
-623,663	-134,320	-0,122	-0,011
-622,649	94,589	-0,106	-0,088
-621,634	-200,000	-0,056	-0,221
-620,619	-200,000	-0,007	-0,198
-619,605	-76,769	-0,083	0,021
-618,590	800,000	0,034	-0,075
-617,576	-21,392	-0,044	0,020
-616,561	-200,000	-0,006	-0,048
-615,546	81,147	-0,095	-0,075
-614,532	-200,000	0,008	0,063
-613,517	369,774	0,079	-0,117
-612,503	68,048	-0,045	-0,034
-611,488	107,282	-0,029	0,026
-610,474	35,171	0,024	0,015
-609,459	-200,000	-0,022	-0,103
-608,444	342,914	-0,027	0,038
-607,430	88,892	-0,113	-0,092
-606,415	-156,512	0,118	0,005
-605,401	86,280	-0,075	0,060
-604,386	-148,267	0,064	-0,004
-603,371	-200,000	0,003	-0,086
-602,357	-85,464	-0,041	-0,009
-601,342	-113,905	0,073	-0,010
-600,328	-131,286	-0,075	0,007
-599,313	-200,000	-0,005	-0,149
-598,298	800,000	0,059	-0,141
-597,284	171,122	-0,027	0,028
-596,269	255,272	0,091	-0,114
-595,255	800,000	0,029	-0,092
-594,240	800,000	0,042	-0,108
-593,225	83,406	0,009	0,007
-592,211	800,000	-0,024	-0,056
-591,196	-87,404	-0,088	0,019
-590,182	800,000	-0,026	0,075
-589,167	-60,689	0,102	0,032
-588,152	-200,000	0,023	0,146
-587,138	-200,000	-0,024	-0,082
-586,123	-200,000	-0,064	-0,292
-585,109	281,736	-0,071	0,094
-584,094	196,238	-0,083	-0,093
-583,079	-153,438	0,100	0,005
-582,065	-30,249	0,230	0,095
-581,050	-169,583	-0,068	0,002
-580,036	-88,406	-0,056	-0,012
-579,021	534,135	0,036	-0,063
-578,006	-43,009	-0,018	-0,007
-576,992	-89,228	-0,108	-0,023
-575,977	800,000	-0,039	-0,092
-574,963	-35,958	0,118	0,046
-573,948	91,000	0,020	-0,016
-572,934	-157,728	-0,077	0,003
-571,919	44,983	0,079	-0,053
-570,904	-140,689	-0,050	0,004
-569,890	-163,655	-0,157	-0,005
-568,875	-200,000	0,001	-0,121
-567,861	-124,068	-0,127	-0,014
-566,846	-109,065	-0,035	0,005
-565,831	137,355	-0,031	-0,030
-564,817	315,898	0,048	0,066
-563,802	142,508	0,055	-0,053
-562,788	800,000	-0,055	-0,116
-561,773	26,431	0,091	-0,055
-560,758	13,270	-0,132	0,075
-559,744	-200,000	-0,006	0,090
-558,729	101,951	-0,054	0,046
-557,715	-12,165	0,104	-0,049
-556,700	17,847	-0,071	-0,041
-555,685	-149,578	-0,082	-0,005
-554,671	95,925	0,065	0,054
-553,656	-200,000	-0,014	0,172
-552,642	-200,000	0,022	-0,128
-551,627	-142,993	0,097	0,007
-550,612	-23,052	0,087	0,038
-549,598	119,006	0,104	-0,094
-548,583	-200,000	0,020	-0,065
-547,569	54,036	0,036	0,025
-546,554	-200,000	-0,003	-0,061
-545,539	-200,000	-0,034	0,119
-544,525	94,861	-0,061	-0,051
-543,510	-200,000	0,027	0,132
-542,496	-200,000	0,018	0,000
-541,481	800,000	-0,015	0,040
-540,466	356,328	-0,130	-0,189
-539,452	-43,813	0,076	0,028
-538,437	800,000	-0,031	0,069
-537,423	800,000	-0,036	0,086
-536,408	-200,000	-0,007	0,067
-535,393	800,000	-0,009	0,029
-534,379	-93,925	-0,164	0,033
-533,364	12,744	0,140	0,078
-532,350	16,245	0,080	-0,046
-531,335	394,901	-0,077	0,117
-530,321	-200,000	0,016	0,078
-529,306	-97,354	-0,037	0,007
-528,291	-162,938	-0,039	0,001
-527,277	-123,901	-0,083	0,009
-526,262	-30,937	-0,045	-0,019
-525,248	278,028	0,125	0,163
-524,233	270,297	0,063	0,080
-523,218	800,000	0,027	0,086
-522,204	800,000	0,031	0,095
-521,189	145,761	-0,089	0,087
-520,175	222,790	-0,128	-0,151
-519,160	800,000	-0,033	-0,073
-518,145	200,866	0,055	0,062
-517,131	-200,000	0,015	-0,176
-516,116	-200,000	0,015	0,115
-515,102	-1,578	0,046	0,024
-514,087	-200,000	0,006	-0,066
-513,072	-57,773	-0,142	-0,045
-512,058	-117,725	-0,064	0,008
-511,043	368,946	0,076	-0,112
-510,029	64,187	0,074	0,054
-509,014	-200,000	0,005	-0,148
-507,999	283,898	0,014	-0,019
-506,985	336,732	0,009	0,013
-505,970	-170,444	-0,158	0,004
-504,956	800,000	-0,031	0,070
-503,941	800,000	0,033	-0,079
-502,926	447,458	-0,015	-0,024
-501,912	-200,000	0,003	0,012
-500,897	-200,000	-0,007	0,071
-499,883	63,557	-0,094	0,069
-498,868	-200,000	0,003	-0,034
-497,853	253,785	0,060	-0,074
-496,839	-200,000	0,024	0,084
-495,824	-200,000	0,010	-0,032
-494,810	261,085	0,036	-0,046
-493,795	-200,000	0,005	0,093
-492,781	42,500	-0,101	-0,067
-491,766	800,000	-0,038	0,086
-490,751	-107,204	0,050	-0,008
-489,737	359,250	0,037	-0,055
-488,722	-200,000	-0,003	-0,043
-487,708	800,000	0,024	0,066
-486,693	117,711	-0,108	0,097
-485,678	92,547	0,085	-0,070
-484,664	-200,000	0,044	-0,209
-483,649	240,644	-0,059	0,072
-482,635	-200,000	-0,015	0,100
-481,620	-0,342	-0,117	-0,060
-480,605	450,344	0,029	0,047
-479,591	-72,878	0,060	-0,016
-478,576	-200,000	-0,001	-0,055
-477,562	-150,860	-0,094	0,005
-476,547	-200,000	-0,011	-0,082
-475,532	-35,755	0,108	-0,042
-474,518	80,381	0,039	0,031
-473,503	-200,000	-0,026	0,146
-472,489	800,000	-0,049	0,158
-471,474	469,594	0,028	-0,046
-470,459	-51,290	0,150	-0,051
-469,445	-131,398	-0,045	0,004
-468,430	-32,180	-0,063	0,026
-467,416	90,349	0,018	-0,014
-466,401	-65,874	0,158	0,046
-465,386	747,378	-0,034	0,066
-464,372	800,000	0,028	0,059
-463,357	171,537	-0,070	-0,074
-462,343	286,165	-0,042	-0,055
-461,328	-115,933	0,045	-0,006
-460,313	207,339	0,058	0,066
-459,299	-200,000	-0,002	-0,050
-458,284	85,669	0,062	-0,049
-457,270	-200,000	0,008	0,080
-456,255	-200,000	-0,001	-0,079
-455,241	16,087	-0,018	0,010
-454,226	-200,000	-0,014	-0,051
-453,211	-200,000	0,018	0,118
-452,197	28,548	0,054	-0,033
-451,182	260,348	-0,050	0,063
-450,168	-121,299	0,090	0,011
-449,153	-200,000	0,032	-0,127
-448,138	-32,462	-0,147	0,059
-447,124	245,342	-0,051	-0,062
-446,109	-58,245	0,080	0,025
-445,095	333,179	-0,028	-0,039
-444,080	182,452	0,074	-0,079
-443,065	-57,054	0,049	0,016
-442,051	800,000	0,025	0,073
-441,036	-200,000	-0,011	-0,044
-440,022	222,077	-0,081	-0,095
-439,007	586,379	-0,009	-0,015
-437,992	800,000	-0,023	0,074
-436,978	800,000	-0,008	0,022
-435,963	-19,292	-0,096	-0,043
-434,949	42,932	0,168	0,111
-433,934	-200,000	-0,002	-0,158
-432,919	-200,000	-0,007	-0,068
-431,905	31,406	-0,055	-0,035
-430,890	-26,667	-0,023	0,010
-429,876	-200,000	0,038	0,142
-428,861	-111,907	-0,155	0,023
-427,846	-173,477	-0,029	0,001
-426,832	522,226	-0,047	0,080
-425,817	372,376	-0,034	-0,051
-424,803	-183,053	0,134	-0,002
-423,788	623,783	0,089	0,163
-422,773	63,211	-0,078	-0,057
-421,759	357,594	-0,116	0,168
-420,744	520,487	-0,040	-0,069
-419,730	-200,000	0,015	-0,066
-418,715	682,899	-0,019	-0,036
-417,701	-66,659	0,092	-0,026
-416,686	-200,000	0,029	0,158
-415,671	37,441	0,036	-0,023
-414,657	-200,000	-0,032	0,113
-413,642	-79,409	-0,066	-0,016
-412,628	-200,000	0,003	-0,041
-411,613	800,000	0,077	-0,230
-410,598	800,000	-0,044	0,096
-409,584	800,000	0,067	0,163
-408,569	11,119	0,122	0,068
-407,555	754,580	0,013	0,026
-406,540	-200,000	-0,002	-0,052
-405,525	-39,154	-0,046	-0,017
-404,511	653,387	0,068	-0,127
-403,496	-200,000	-0,017	0,091
-402,482	46,022	0,059	0,040
-401,467	-79,166	0,031	-0,008
-400,452	158,774	0,122	0,124
-399,438	168,703	-0,057	0,059
-398,423	-104,919	-0,074	0,012
-397,409	758,869	-0,040	0,079
-396,394	800,000	0,018	0,039
-395,379	-200,000	0,004	0,026
-394,365	314,114	0,075	0,103
-393,350	39,288	0,025	-0,016
-392,336	800,000	-0,025	0,071
-391,321	161,154	0,055	0,056
-390,306	-98,281	-0,067	-0,012
-389,292	-40,828	0,079	0,029
-388,277	118,633	-0,087	0,078
-387,263	800,000	-0,029	-0,063
-386,248	-5,358	0,022	0,011
-385,233	50,952	-0,041	-0,028
-384,219	-200,000	-0,009	-0,043
-383,204	697,995	0,042	-0,081
-382,190	642,409	-0,094	-0,175
-381,175	62,268	-0,043	0,031
-380,160	127,483	0,034	0,031
-379,146	-107,022	0,076	-0,012
-378,131	-126,944	0,133	-0,014
-377,117	800,000	0,012	-0,032
-376,102	13,436	-0,093	-0,052
-375,088	13,568	-0,074	-0,042
-374,073	-160,640	0,047	-0,002
-373,058	-200,000	-0,006	-0,100
-372,044	649,787	0,138	0,257
-371,029	-57,753	0,060	0,019
-370,015	800,000	0,013	0,031
-369,000	-200,000	0,018	0,069
-367,985	-200,000	0,001	0,089
-366,971	509,784	0,031	0,053
-365,956	14,869	0,054	-0,031
-364,942	-200,000	0,042	0,178
-363,927	-46,733	-0,105	-0,037
-362,912	110,014	-0,064	0,056
-361,898	-26,405	-0,038	-0,016
-360,883	81,144	-0,035	-0,027
-359,869	800,000	0,014	0,040
-358,854	-92,531	0,084	-0,017
-357,839	-182,459	0,070	0,001
-356,825	392,972	0,107	0,162
-355,810	17,839	-0,051	0,029
-354,796	76,621	-0,055	-0,042
-353,781	800,000	-0,007	-0,016
-352,766	800,000	0,089	-0,181
-351,752	460,413	-0,037	-0,060
-350,737	70,114	-0,071	0,053
-349,723	-200,000	0,010	0,095
-348,708	800,000	-0,011	-0,029
-347,693	39,894	0,021	0,014
-346,679	-135,402	-0,047	-0,004
-345,664	336,246	0,075	-0,106
-344,650	-157,183	0,110	-0,005
-343,635	320,261	0,070	-0,096
-342,620	-30,997	0,064	-0,026
-341,606	124,530	0,139	0,126
-340,591	-200,000	0,014	-0,053
-339,577	800,000	-0,033	0,100
-338,562	800,000	0,009	-0,023
-337,548	94,850	0,102	-0,084
-336,533	800,000	-0,037	-0,101
-335,518	800,000	0,041	-0,107
-334,504	242,166	-0,090	0,109
-333,489	-200,000	-0,050	-0,170
-332,475	-157,893	-0,089	0,004
-331,460	80,520	-0,046	0,036
-330,445	-113,987	0,126	-0,018
-329,431	-66,425	0,116	-0,033
-328,416	378,844	0,050	0,074
-327,402	-126,898	-0,087	0,009
-326,387	-200,000	0,024	-0,123
-325,372	36,159	0,063	-0,040
-324,358	-96,344	-0,021	0,004
-323,343	465,741	-0,029	0,048
-322,329	795,162	-0,017	-0,033
-321,314	132,588	0,048	-0,045
-320,299	-42,390	0,239	0,088
-319,285	57,733	-0,067	-0,048
-318,270	-37,083	-0,089	-0,034
-317,256	117,634	-0,019	-0,017
-316,241	800,000	0,011	-0,028
-315,226	264,534	0,043	0,055
-314,212	63,057	-0,028	0,020
-313,197	800,000	0,031	0,083
-312,183	-200,000	-0,039	-0,137
-311,168	148,062	0,058	0,057
-310,153	63,397	-0,136	0,098
-309,139	800,000	0,040	-0,087
-308,124	164,348	0,052	0,053
-307,110	13,452	0,145	0,081
-306,095	-200,000	0,004	0,034
-305,080	-200,000	-0,002	0,019
-304,066	32,797	-0,032	-0,020
-303,051	112,288	0,088	0,077
-302,037	800,000	0,041	-0,094
-301,022	-145,767	0,113	-0,007
-300,008	48,548	0,049	-0,033
-298,993	225,762	-0,049	0,058
-297,978	72,474	-0,049	0,037
-296,964	304,803	0,050	-0,067
-295,949	-60,987	0,066	-0,020
-294,935	-200,000	0,033	-0,197
-293,920	-200,000	0,017	-0,068
-292,905	75,764	0,077	-0,059
-291,891	-200,000	-0,026	0,105
-290,876	-64,693	0,063	-0,018
-289,862	197,995	0,010	-0,011
-288,847	231,181	-0,108	-0,128
-287,832	-200,000	0,004	0,062
-286,818	620,071	-0,037	-0,068
-285,803	-73,043	0,040	-0,010
-284,789	134,253	0,037	0,035
-283,774	68,314	0,047	0,034
-282,759	35,295	-0,030	-0,019
-281,745	-106,400	0,071	-0,011
-280,730	-200,000	-0,011	-0,043
-279,716	191,294	0,109	-0,119
-278,701	677,188	-0,030	-0,056
-277,686	506,297	-0,035	0,058
-276,672	489,382	0,054	-0,090
-275,657	667,139	-0,081	0,151
-274,643	-102,750	0,041	-0,007
-273,628	77,756	-0,110	-0,085
-272,613	-200,000	0,003	-0,107
-271,599	-70,455	-0,055	0,015
-270,584	-57,318	-0,050	0,016
-269,570	-106,929	0,053	-0,008
-268,555	-200,000	-0,007	-0,029
-267,540	-200,000	0,039	0,136
-266,526	-200,000	-0,002	0,064
-265,511	317,286	-0,027	-0,037
-264,497	-54,833	-0,096	-0,031
-263,482	800,000	0,062	-0,169
-262,467	-200,000	-0,039	0,159
-261,453	800,000	-0,016	-0,044
-260,438	-44,572	-0,027	-0,010
-259,424	23,284	-0,041	-0,024
-258,409	-63,371	-0,010	0,003
-257,395	-81,274	0,130	0,031
-256,380	-4,031	-0,043	0,021
-255,365	-133,094	0,137	0,012
-254,351	800,000	0,052	0,141
-253,336	-200,000	0,033	-0,133
-252,322	-99,885	0,037	-0,007
-251,307	-200,000	0,006	-0,080
-250,292	-88,173	-0,048	-0,010
-249,278	-52,873	0,058	0,019
-248,263	278,042	0,129	0,166
-247,249	-160,383	-0,108	-0,004
-246,234	800,000	0,024	-0,068
-245,219	-200,000	0,013	-0,070
-244,205	-17,456	0,046	-0,021
-243,190	-200,000	-0,020	0,077
-242,176	447,178	0,034	0,054
-241,161	158,641	0,166	0,167
-240,146	-131,428	0,191	0,018
-239,132	-200,000	0,002	-0,084
-238,117	-116,587	-0,096	-0,013
-237,103	-94,263	-0,081	-0,016
-236,088	195,854	0,048	-0,052
-235,073	440,956	0,021	0,033
-234,059	-15,505	0,079	0,036
-233,044	-110,693	-0,083	-0,012
-232,030	545,643	-0,021	0,037
-231,015	61,289	-0,086	-0,062
-230,000	-200,000	-0,026	0,115
-228,986	-4,781	-0,064	0,032
-227,971	-200,000	-0,040	0,172
-226,957	-200,000	-0,003	0,127
-225,942	800,000	-0,021	-0,064
-224,927	-200,000	0,036	-0,155
-223,913	800,000	-0,055	-0,156
-222,898	166,379	-0,113	-0,115
-221,884	-56,164	-0,075	-0,024
-220,869	763,582	0,033	0,066
-219,855	187,774	0,024	-0,026
-218,840	-131,248	-0,011	0,001
-217,825	-98,791	0,072	0,013
-216,811	192,747	-0,065	-0,071
-215,796	72,030	-0,042	-0,031
-214,782	-84,708	0,131	-0,030
-213,767	172,770	0,149	0,154
-212,752	485,475	-0,067	0,110
-211,738	596,708	0,032	0,057
-210,723	79,389	-0,086	0,067
-209,709	614,648	0,056	-0,101
-208,694	269,903	-0,070	-0,088
-207,679	568,512	0,049	-0,087
-206,665	366,265	0,021	-0,031
-205,650	324,413	0,029	0,039
-204,636	800,000	0,049	0,099
-203,621	-48,586	0,189	0,065
-202,606	-169,441	-0,024	0,001
-201,592	-200,000	0,003	0,034
-200,577	-200,000	-0,068	0,000
-199,563	-200,000	0,037	0,149
-198,548	183,874	0,073	-0,078
-197,533	541,115	0,015	0,026
-196,519	70,796	-0,073	-0,054
-195,504	124,966	-0,063	-0,057
-194,490	-200,000	0,007	-0,132
-193,475	-50,375	-0,077	0,026
-192,460	-107,547	-0,052	0,008
-191,446	46,304	0,096	0,064
-190,431	-200,000	0,007	0,078
-189,417	-69,313	0,043	-0,012
-188,402	-200,000	-0,015	-0,068
-187,387	45,040	-0,131	-0,087
-186,373	164,590	-0,056	-0,056
-185,358	-175,972	0,067	-0,001
-184,344	-101,991	0,171	0,029
-183,329	174,955	0,094	-0,098
-182,315	-200,000	0,013	0,152
-181,300	620,072	0,026	0,047
-180,285	359,875	0,044	0,064
-179,271	-108,808	0,042	-0,006
-178,256	-200,000	-0,016	0,111
-177,242	-97,506	-0,168	0,031
-176,227	-200,000	-0,006	0,074
-175,212	25,981	0,148	0,089
-174,198	-14,197	-0,015	0,007
-173,183	-200,000	-0,007	0,059
-172,169	-41,572	-0,044	-0,016
-171,154	-62,708	-0,122	-0,036
-170,139	76,324	-0,049	0,037
-169,125	-200,000	0,018	-0,199
-168,110	-63,187	-0,111	-0,033
-167,096	463,625	0,061	0,099
-166,081	-88,451	-0,054	-0,011
-165,066	-71,692	-0,017	-0,005
-164,052	189,044	-0,022	-0,024
-163,037	309,416	-0,026	-0,035
-162,023	111,581	0,065	0,057
-161,008	-200,000	-0,003	-0,044
-159,993	-114,086	-0,125	0,017
-158,979	476,064	-0,055	0,090
-157,964	338,425	-0,090	0,126
-156,950	-18,621	0,114	-0,051
-155,935	-200,000	-0,002	-0,047
-154,920	-78,556	-0,199	-0,049
-153,906	-69,956	0,037	0,010
-152,891	-70,453	-0,142	0,038
-151,877	328,253	0,068	0,094
-150,862	483,936	-0,084	0,139
-149,847	600,505	-0,068	-0,123
-148,833	-200,000	0,023	0,081
-147,818	-200,000	-0,034	0,109
-146,804	-200,000	-0,037	0,177
-145,789	-186,534	-0,056	-0,001
-144,775	800,000	-0,039	0,080
-143,760	-142,090	-0,088	-0,006
-142,745	-200,000	-0,015	-0,090
-141,731	217,116	-0,030	0,035
-140,716	5,379	0,047	0,025
-139,702	-28,907	-0,097	0,040
-138,687	-37,325	-0,072	-0,027
-137,672	-127,173	-0,142	0,015
-136,658	-0,708	0,021	-0,011
-135,643	201,945	-0,055	0,061
-134,629	800,000	0,076	0,164
-133,614	800,000	0,066	0,146
-132,599	4,566	0,087	-0,046
-131,585	330,092	-0,077	0,106
-130,570	-133,816	0,095	-0,008
-129,556	79,741	-0,076	-0,058
-128,541	106,838	-0,027	0,023
-127,526	211,024	0,020	0,022
-126,512	-126,786	0,048	0,005
-125,497	800,000	0,068	0,149
-124,483	122,991	-0,052	0,047
-123,468	-23,749	-0,035	-0,015
-122,453	2,355	-0,115	0,059
-121,439	-200,000	0,008	-0,073
-120,424	-200,000	-0,007	-0,022
