DTS Sentinel unit serial number:	SN410029Multiplexer serial number:	ORYXHardware model number:	OX2-SRSoftware version number:	ORYX F/W v4,00 Oryx Data Collector v3.7.2.0data status	okinstallation	B6 Nyhavnadifferential loss correction	single-endedforward channel	channel 2reverse channel	N/Adate	2023/12/08time	04:10:08forward acquisition time	300,00reverse acquisition time	0,00gamma	499,1914k internal	0,3165k external	0,3165temperature offset calibration	1,0000default loss term (dB/km)	0,3820temperature slope calibration	1,0000multiplexer offset coefficient	1,0000multiplexer slope coefficient	1,0000fibre end	0,00T internal ref (°C)	13,06T ext. ref 1 (°C)	-3,80T ext. ref 2 (°C)	-3,80length (m)	temperature (°C)	Stokes	anti-Stokes-744,400	-125,649	0,233	0,026
-743,385	-81,154	-0,300	-0,072
-742,371	469,573	0,017	0,028
-741,356	-26,198	-0,232	0,100
-740,342	-200,000	0,005	0,188
-739,327	-116,713	-0,295	0,039
-738,312	-66,008	0,146	0,043
-737,298	-123,554	-0,448	-0,052
-736,283	-80,805	0,185	0,045
-735,269	-189,225	-0,263	-0,002
-734,254	-73,492	0,239	-0,064
-733,239	-23,012	-0,541	-0,239
-732,225	670,028	0,036	-0,068
-731,210	-78,205	-0,069	0,017
-730,196	-27,018	0,131	-0,056
-729,181	-1,055	-0,205	0,106
-728,167	125,105	0,066	-0,062
-727,152	-5,946	0,031	-0,016
-726,137	58,975	-0,109	0,078
-725,123	5,758	-0,088	0,048
-724,108	27,760	-0,066	-0,040
-723,094	-200,000	0,009	0,056
-722,079	-200,000	-0,011	-0,045
-721,064	-17,478	0,011	-0,005
-720,050	64,306	0,098	-0,072
-719,035	-200,000	0,007	-0,046
-718,021	800,000	-0,037	0,101
-717,006	-200,000	-0,002	0,081
-715,991	708,730	-0,013	0,026
-714,977	3,490	0,021	0,011
-713,962	246,856	-0,085	0,106
-712,948	-200,000	0,017	-0,097
-711,933	-16,386	-0,027	0,013
-710,918	-38,911	-0,173	0,067
-709,904	99,614	-0,061	-0,052
-708,889	-72,057	-0,226	-0,061
-707,875	-121,868	-0,089	-0,011
-706,860	-200,000	0,016	0,087
-705,845	-200,000	0,011	0,145
-704,831	800,000	0,043	0,115
-703,816	-200,000	0,020	-0,089
-702,802	412,310	0,027	-0,043
-701,787	165,403	0,044	-0,046
-700,772	-90,237	-0,043	-0,009
-699,758	-109,928	-0,019	-0,003
-698,743	800,000	-0,035	0,081
-697,729	19,350	-0,076	-0,045
-696,714	800,000	0,046	0,101
-695,699	-33,336	-0,068	-0,028
-694,685	800,000	-0,066	-0,165
-693,670	-114,118	-0,143	-0,020
-692,656	94,514	-0,093	-0,078
-691,641	-29,801	0,120	-0,050
-690,627	-49,717	-0,096	0,033
-689,612	-122,670	0,071	-0,008
-688,597	-61,661	0,078	-0,024
-687,583	730,795	0,023	-0,044
-686,568	350,846	0,080	-0,116
-685,554	-200,000	-0,024	-0,096
-684,539	-200,000	-0,007	-0,089
-683,524	-48,816	0,066	-0,023
-682,510	-86,628	0,074	0,017
-681,495	800,000	-0,029	-0,070
-680,481	94,213	-0,075	-0,063
-679,466	-200,000	-0,015	-0,138
-678,451	-125,505	0,009	0,001
-677,437	800,000	0,028	-0,075
-676,422	-107,079	-0,026	0,004
-675,408	-200,000	0,002	-0,044
-674,393	-200,000	-0,011	-0,126
-673,378	-130,902	-0,155	0,015
-672,364	-200,000	0,013	0,056
-671,349	103,162	-0,050	-0,043
-670,335	17,378	0,108	0,063
-669,320	800,000	0,047	-0,140
-668,305	-59,763	0,103	-0,032
-667,291	-161,292	0,017	0,001
-666,276	265,676	0,042	0,054
-665,262	-67,599	-0,020	-0,006
-664,247	800,000	-0,033	-0,072
-663,232	-36,191	-0,101	0,040
-662,218	-73,085	0,122	-0,033
-661,203	-200,000	-0,020	0,080
-660,189	60,886	0,041	0,030
-659,174	83,181	-0,032	0,026
-658,159	-184,012	-0,030	0,000
-657,145	181,675	-0,143	-0,154
-656,130	800,000	-0,046	-0,093
-655,116	-52,374	-0,064	0,021
-654,101	4,613	-0,015	-0,008
-653,086	-200,000	0,000	-0,062
-652,072	23,708	0,003	-0,002
-651,057	64,252	-0,005	-0,003
-650,043	-65,019	-0,130	-0,038
-649,028	-23,516	0,046	0,020
-648,014	208,416	0,075	0,086
-646,999	-76,552	0,084	-0,021
-645,984	305,463	-0,096	0,132
-644,970	-59,057	0,137	0,043
-643,955	22,427	-0,114	-0,068
-642,941	157,058	-0,070	-0,071
-641,926	-104,194	0,166	0,028
-640,911	800,000	-0,007	0,017
-639,897	-200,000	0,022	0,142
-638,882	121,560	-0,035	-0,032
-637,868	231,799	0,082	-0,098
-636,853	420,015	0,026	0,040
-635,838	696,091	0,012	-0,024
-634,824	800,000	0,030	-0,086
-633,809	-55,130	0,054	0,018
-632,795	254,316	0,048	0,061
-631,780	383,602	0,055	-0,083
-630,765	-106,715	-0,027	-0,004
-629,751	253,482	-0,036	-0,045
-628,736	-129,505	-0,060	0,006
-627,722	-200,000	-0,015	-0,165
-626,707	-62,740	0,165	0,050
-625,692	-200,000	0,009	0,067
-624,678	-140,868	0,007	0,001
-623,663	16,460	-0,071	-0,041
-622,649	331,395	-0,123	-0,175
-621,634	-164,548	-0,095	-0,003
-620,619	-200,000	0,006	-0,030
-619,605	231,914	-0,043	0,051
-618,590	800,000	0,037	0,107
-617,576	-101,150	0,049	-0,009
-616,561	-200,000	-0,011	0,105
-615,546	800,000	0,005	0,017
-614,532	-200,000	0,010	0,060
-613,517	-200,000	0,002	0,014
-612,503	800,000	-0,034	0,078
-611,488	-81,227	0,039	-0,009
-610,474	129,051	0,041	-0,038
-609,459	800,000	0,016	0,046
-608,444	218,059	-0,018	-0,022
-607,430	-200,000	-0,006	0,134
-606,415	-68,136	-0,146	0,041
-605,401	-12,286	0,063	-0,030
-604,386	800,000	0,024	0,057
-603,371	314,559	0,059	0,082
-602,357	-200,000	0,005	-0,029
-601,342	-200,000	-0,010	-0,054
-600,328	800,000	-0,024	-0,066
-599,313	-58,232	0,130	-0,041
-598,298	-89,835	-0,022	0,005
-597,284	7,794	0,026	-0,014
-596,269	-155,057	-0,053	-0,002
-595,255	138,877	-0,041	-0,039
-594,240	75,255	0,029	0,022
-593,225	-100,683	-0,106	-0,019
-592,211	800,000	0,026	0,082
-591,196	-116,861	0,109	-0,014
-590,182	-124,712	0,111	0,012
-589,167	-200,000	0,020	0,087
-588,152	108,820	-0,069	0,060
-587,138	-200,000	0,030	-0,100
-586,123	-200,000	0,016	-0,057
-585,109	800,000	-0,001	-0,002
-584,094	286,976	0,057	-0,076
-583,079	-200,000	-0,008	-0,249
-582,065	-200,000	-0,008	0,089
-581,050	800,000	-0,011	-0,028
-580,036	-76,798	-0,181	0,046
-579,021	38,643	-0,099	-0,065
-578,006	-103,153	-0,086	-0,015
-576,992	-55,020	0,069	0,023
-575,977	-13,960	0,003	0,002
-574,963	-88,846	-0,051	0,011
-573,948	712,788	0,051	0,098
-572,934	428,023	0,032	0,050
-571,919	800,000	-0,039	-0,123
-570,904	-200,000	-0,039	-0,127
-569,890	-162,983	0,065	0,002
-568,875	-200,000	-0,003	0,064
-567,861	-38,814	-0,079	0,030
-566,846	-200,000	0,009	0,090
-565,831	28,630	-0,054	-0,033
-564,817	-80,646	0,062	0,015
-563,802	-47,255	-0,058	-0,020
-562,788	9,411	-0,042	-0,023
-561,773	-29,709	-0,079	0,033
-560,758	31,530	-0,025	-0,016
-559,744	-76,068	0,074	-0,019
-558,729	691,290	-0,029	-0,055
-557,715	23,313	-0,090	0,054
-556,700	-118,112	-0,131	0,017
-555,685	-85,623	0,040	-0,009
-554,671	361,177	0,071	0,104
-553,656	722,593	0,078	-0,152
-552,642	767,500	-0,030	0,060
-551,627	-200,000	0,009	0,099
-550,612	-121,787	-0,073	0,009
-549,598	-166,635	0,113	0,003
-548,583	120,051	0,040	-0,036
-547,569	800,000	0,033	-0,093
-546,554	467,936	0,076	-0,125
-545,539	-200,000	-0,019	0,127
-544,525	638,737	-0,008	-0,015
-543,510	153,490	-0,066	0,066
-542,496	800,000	0,015	-0,046
-541,481	-200,000	0,033	-0,131
-540,466	298,659	0,032	-0,044
-539,452	-184,459	0,047	0,001
-538,437	-35,229	-0,036	0,014
-537,423	-200,000	-0,004	0,108
-536,408	112,814	-0,068	-0,060
-535,393	243,191	0,064	0,078
-534,379	-195,211	-0,068	0,000
-533,364	-200,000	-0,012	-0,072
-532,350	166,084	0,143	0,148
-531,335	167,359	-0,067	0,070
-530,321	-165,555	-0,023	-0,001
-529,306	275,224	-0,085	0,110
-528,291	-110,165	0,061	0,009
-527,277	-0,109	-0,111	0,058
-526,262	-200,000	0,013	0,106
-525,248	-13,850	-0,130	-0,061
-524,233	318,731	0,026	-0,036
-523,218	-89,253	-0,066	-0,014
-522,204	206,540	0,017	0,019
-521,189	42,401	0,119	0,079
-520,175	375,681	0,011	-0,016
-519,160	279,842	-0,070	-0,091
-518,145	260,386	-0,044	-0,055
-517,131	-200,000	0,012	0,129
-516,116	800,000	-0,027	0,063
-515,102	-60,905	-0,021	0,006
-514,087	14,596	0,078	-0,045
-513,072	-200,000	-0,011	-0,208
-512,058	-29,766	-0,096	0,040
-511,043	-53,332	0,036	-0,012
-510,029	-200,000	-0,006	0,117
-509,014	618,550	-0,025	0,047
-507,999	-110,878	-0,022	0,003
-506,985	2,134	0,105	0,055
-505,970	449,982	-0,023	0,037
-504,956	800,000	0,008	-0,020
-503,941	-200,000	-0,012	-0,102
-502,926	52,488	-0,053	0,037
-501,912	-200,000	-0,001	0,085
-500,897	-200,000	0,013	0,142
-499,883	-134,742	-0,078	0,007
-498,868	144,504	0,123	-0,119
-497,853	75,286	-0,019	-0,015
-496,839	-101,935	-0,068	-0,012
-495,824	-18,818	0,150	0,068
-494,810	800,000	-0,057	-0,123
-493,795	125,425	0,108	-0,100
-492,781	-152,080	-0,062	0,003
-491,766	216,212	-0,033	-0,039
-490,751	-200,000	-0,000	-0,002
-489,737	-81,287	0,077	-0,018
-488,722	-200,000	-0,002	-0,022
-487,708	-161,178	0,103	-0,004
-486,693	469,041	-0,085	0,140
-485,678	53,371	-0,049	-0,034
-484,664	-44,831	-0,096	-0,035
-483,649	-200,000	0,008	-0,151
-482,635	-120,318	-0,042	-0,005
-481,620	-200,000	0,033	0,182
-480,605	30,357	0,063	-0,039
-479,591	-200,000	-0,028	-0,108
-478,576	699,874	0,017	0,033
-477,562	-53,266	-0,088	0,029
-476,547	800,000	-0,028	-0,067
-475,532	29,953	0,151	0,093
-474,518	-124,694	0,131	-0,015
-473,503	-200,000	0,015	-0,049
-472,489	-158,245	0,018	0,001
-471,474	600,208	0,086	-0,156
-470,459	-103,456	-0,066	-0,011
-469,445	-85,617	-0,099	0,022
-468,430	-200,000	-0,033	-0,133
-467,416	587,984	0,018	0,033
-466,401	-74,279	0,052	0,014
-465,386	-200,000	0,039	0,136
-464,372	-23,148	0,205	0,090
-463,357	-116,428	0,089	0,012
-462,343	-84,780	0,144	0,033
-461,328	27,844	0,005	0,003
-460,313	119,399	0,113	0,102
-459,299	800,000	-0,082	0,173
-458,284	-200,000	-0,006	0,052
-457,270	-200,000	0,001	-0,067
-456,255	-32,716	-0,046	-0,018
-455,241	50,725	-0,030	-0,021
-454,226	800,000	0,094	-0,190
-453,211	-94,827	0,119	-0,023
-452,197	56,624	-0,041	-0,029
-451,182	-200,000	-0,001	0,011
-450,168	552,840	0,032	0,056
-449,153	800,000	-0,034	-0,081
-448,138	-78,003	-0,105	-0,026
-447,124	-200,000	0,000	-0,019
-446,109	-200,000	-0,006	0,038
-445,095	-200,000	0,002	-0,044
-444,080	431,972	0,030	0,047
-443,065	2,208	0,118	0,062
-442,051	-200,000	-0,018	-0,173
-441,036	-136,256	-0,065	-0,005
-440,022	-187,267	-0,168	-0,002
-439,007	-200,000	0,033	0,179
-437,992	800,000	-0,050	0,103
-436,978	800,000	-0,049	-0,132
-435,963	366,840	-0,052	-0,077
-434,949	69,996	0,103	-0,077
-433,934	-200,000	-0,007	-0,111
-432,919	-200,000	0,002	0,091
-431,905	-200,000	0,001	0,136
-430,890	800,000	-0,010	-0,020
-429,876	-200,000	0,032	-0,115
-428,861	292,913	-0,050	-0,067
-427,846	-1,458	0,094	-0,048
-426,832	-200,000	0,014	-0,098
-425,817	47,073	-0,115	-0,077
-424,803	-200,000	-0,008	-0,101
-423,788	-147,831	0,069	0,004
-422,773	-200,000	-0,013	0,047
-421,759	327,911	0,065	0,091
-420,744	-200,000	-0,024	-0,082
-419,730	-200,000	-0,010	0,121
-418,715	800,000	-0,024	-0,064
-417,701	-18,390	-0,096	-0,043
-416,686	-158,463	0,066	0,003
-415,671	453,485	0,064	-0,103
-414,657	-200,000	-0,007	0,067
-413,642	344,021	-0,102	-0,146
-412,628	632,122	0,022	-0,040
-411,613	-200,000	0,008	0,036
-410,598	56,532	0,055	0,039
-409,584	-200,000	0,019	-0,081
-408,569	-10,752	0,027	0,013
-407,555	-164,758	0,074	-0,002
-406,540	20,257	0,020	0,012
-405,525	800,000	0,015	0,042
-404,511	281,791	0,020	-0,026
-403,496	-200,000	0,002	-0,115
-402,482	102,187	-0,051	0,043
-401,467	34,636	-0,068	0,043
-400,452	-200,000	-0,002	0,011
-399,438	800,000	0,084	0,201
-398,423	-200,000	0,005	-0,153
-397,409	-177,814	-0,095	-0,002
-396,394	44,094	-0,068	-0,045
-395,379	56,498	0,102	-0,072
-394,365	304,878	-0,053	-0,072
-393,350	-9,248	0,128	0,062
-392,336	-200,000	-0,007	-0,047
-391,321	-173,735	-0,020	-0,000
-390,306	-145,473	-0,089	-0,006
-389,292	-98,737	-0,100	-0,018
-388,277	-107,515	-0,141	-0,022
-387,263	800,000	-0,035	0,071
-386,248	77,042	-0,113	0,087
-385,233	-23,194	-0,034	0,015
-384,219	-82,305	0,041	-0,010
-383,204	800,000	-0,028	-0,069
-382,190	-53,964	0,106	-0,035
-381,175	-200,000	-0,010	-0,056
-380,160	-200,000	0,018	-0,093
-379,146	507,685	0,068	0,115
-378,131	800,000	-0,016	-0,035
-377,117	48,590	-0,022	0,015
-376,102	800,000	-0,062	0,133
-375,088	-200,000	-0,002	-0,057
-374,073	-200,000	-0,007	-0,055
-373,058	590,100	0,027	0,048
-372,044	375,738	0,116	0,172
-371,029	-200,000	0,001	0,071
-370,015	-200,000	0,006	0,025
-369,000	107,214	-0,098	-0,085
-367,985	-200,000	0,005	0,040
-366,971	129,351	0,057	-0,053
-365,956	800,000	0,019	0,058
-364,942	17,049	-0,025	0,014
-363,927	209,470	0,090	-0,103
-362,912	202,179	-0,090	0,100
-361,898	-51,239	-0,139	-0,047
-360,883	-80,128	-0,116	0,028
-359,869	-71,806	-0,073	0,020
-358,854	325,107	-0,044	0,061
-357,839	800,000	0,046	0,134
-356,825	118,333	0,072	0,064
-355,810	525,590	-0,042	0,072
-354,796	171,788	-0,116	-0,121
-353,781	-82,402	-0,105	0,025
-352,766	81,960	-0,102	-0,080
-351,752	329,492	0,081	-0,113
-350,737	307,612	0,080	-0,108
-349,723	800,000	0,064	0,198
-348,708	800,000	0,054	0,139
-347,693	46,869	-0,083	-0,055
-346,679	51,260	-0,118	-0,081
-345,664	-200,000	-0,013	0,103
-344,650	-200,000	-0,005	-0,154
-343,635	149,224	-0,054	-0,053
-342,620	800,000	-0,013	-0,040
-341,606	-6,082	0,079	0,039
-340,591	458,603	0,077	0,124
-339,577	800,000	-0,017	-0,051
-338,562	-165,534	0,066	-0,002
-337,548	-176,163	0,039	-0,001
-336,533	99,761	-0,155	0,130
-335,518	800,000	-0,086	0,193
-334,504	-91,141	0,134	0,028
-333,489	-100,346	-0,012	0,002
-332,475	800,000	0,075	-0,180
-331,460	-200,000	0,000	-0,119
-330,445	-200,000	-0,007	-0,141
-329,431	-57,845	0,143	-0,045
-328,416	-91,248	0,068	0,014
-327,402	-200,000	-0,007	0,042
-326,387	289,314	-0,054	-0,072
-325,372	704,584	0,024	0,045
-324,358	94,307	0,075	0,062
-323,343	-200,000	0,002	0,009
-322,329	-3,719	0,121	0,060
-321,314	800,000	-0,015	-0,037
-320,299	-77,770	0,101	0,025
-319,285	-81,242	-0,039	0,009
-318,270	170,960	0,040	-0,041
-317,256	64,838	0,087	-0,063
-316,241	-100,383	-0,055	0,010
-315,226	-142,061	-0,013	-0,001
-314,212	800,000	-0,036	0,073
-313,197	800,000	-0,086	0,237
-312,183	-45,335	0,099	0,035
-311,168	-8,777	-0,109	0,053
-310,153	412,881	0,063	-0,098
-309,139	409,398	-0,017	-0,026
-308,124	479,230	0,068	0,112
-307,110	-200,000	-0,022	0,082
-306,095	-200,000	-0,011	0,059
-305,080	800,000	-0,026	0,081
-304,066	188,291	-0,049	0,053
-303,051	-200,000	-0,006	-0,130
-302,037	80,556	-0,100	0,078
-301,022	525,313	0,089	0,152
-300,008	136,956	-0,049	-0,046
-298,993	-200,000	0,049	0,244
-297,978	-200,000	-0,003	0,037
-296,964	-109,789	-0,028	-0,004
-295,949	103,166	-0,027	0,023
-294,935	-100,168	-0,122	-0,022
-293,920	-200,000	0,015	-0,071
-292,905	-85,614	0,098	-0,022
-291,891	48,674	0,043	-0,029
-290,876	800,000	-0,036	-0,094
-289,862	-122,605	0,116	0,013
-288,847	14,409	-0,117	-0,066
-287,832	488,288	-0,052	-0,086
-286,818	193,088	-0,055	0,061
-285,803	162,292	0,040	0,040
-284,789	56,725	0,061	0,043
-283,774	-200,000	-0,024	0,081
-282,759	104,277	-0,109	0,093
-281,745	-200,000	0,001	-0,049
-280,730	223,525	0,127	-0,148
-279,716	70,811	-0,106	-0,079
-278,701	-200,000	0,005	0,078
-277,686	800,000	0,026	0,053
-276,672	174,865	0,056	-0,058
-275,657	40,271	0,029	0,019
-274,643	-200,000	-0,019	-0,103
-273,628	-58,182	0,084	-0,026
-272,613	-200,000	-0,064	0,000
-271,599	-140,832	-0,081	0,006
-270,584	307,977	0,057	-0,077
-269,570	-200,000	0,002	0,102
-268,555	113,518	0,048	0,042
-267,540	38,817	-0,113	0,073
-266,526	800,000	0,047	-0,120
-265,511	800,000	-0,067	-0,147
-264,497	-152,576	0,101	0,005
-263,482	-67,390	0,049	0,014
-262,467	-200,000	0,003	0,025
-261,453	-81,792	0,039	-0,009
-260,438	800,000	-0,037	-0,094
-259,424	632,023	0,026	-0,047
-258,409	800,000	-0,059	-0,165
-257,395	-74,453	0,110	0,029
-256,380	-28,942	0,034	-0,014
-255,365	-144,674	0,066	0,004
-254,351	340,676	0,025	-0,035
-253,336	800,000	-0,048	0,102
-252,322	-171,178	-0,060	0,001
-251,307	-200,000	0,021	0,067
-250,292	800,000	0,028	-0,062
-249,278	29,869	0,127	-0,078
-248,263	322,272	-0,010	-0,014
-247,249	237,277	-0,043	-0,052
-246,234	118,724	-0,030	-0,027
-245,219	265,539	0,057	-0,071
-244,205	-200,000	0,005	-0,016
-243,190	-200,000	-0,057	0,196
-242,176	331,023	-0,062	0,087
-241,161	-177,042	0,091	-0,002
-240,146	223,495	-0,018	-0,022
-239,132	-20,379	-0,159	0,070
-238,117	417,788	-0,016	-0,024
-237,103	135,274	0,099	-0,093
-236,088	341,436	-0,043	-0,060
-235,073	-200,000	0,021	-0,129
-234,059	-189,053	0,056	0,000
-233,044	30,819	0,060	0,037
-232,030	-200,000	-0,003	-0,036
-231,015	-200,000	-0,006	0,019
-230,000	-134,616	-0,069	0,006
-228,986	40,768	0,074	-0,048
-227,971	672,559	0,039	-0,072
-226,957	-33,595	0,129	-0,051
-225,942	800,000	-0,052	0,123
-224,927	-34,991	-0,010	-0,004
-223,913	-200,000	-0,007	0,034
-222,898	16,458	0,068	-0,039
-221,884	196,520	0,067	0,074
-220,869	503,839	-0,045	-0,076
-219,855	308,354	0,015	-0,020
-218,840	83,266	0,112	-0,088
-217,825	-200,000	0,044	-0,164
-216,811	473,682	-0,016	-0,026
-215,796	-200,000	-0,003	-0,027
-214,782	-7,702	-0,048	-0,023
-213,767	-153,748	0,068	-0,003
-212,752	135,088	0,056	0,052
-211,738	-36,952	-0,080	-0,031
-210,723	-52,867	-0,009	0,003
-209,709	-200,000	-0,029	0,114
-208,694	-0,361	-0,121	-0,062
-207,679	-28,334	-0,127	0,053
-206,665	180,847	-0,046	0,048
-205,650	-46,379	0,115	-0,040
-204,636	-170,853	-0,081	0,002
-203,621	-200,000	-0,009	0,158
-202,606	150,641	-0,015	0,015
-201,592	-24,944	0,019	0,008
-200,577	-200,000	-0,031	-0,117
-199,563	-200,000	-0,001	0,035
-198,548	-108,400	0,057	-0,009
-197,533	-182,747	0,108	-0,001
-196,519	9,596	0,067	-0,037
-195,504	-200,000	-0,009	-0,099
-194,490	8,795	-0,063	-0,034
-193,475	235,079	-0,099	0,118
-192,460	269,114	-0,043	0,054
-191,446	9,909	0,198	-0,108
-190,431	-122,689	-0,079	-0,009
-189,417	335,353	-0,044	0,062
-188,402	800,000	0,022	0,059
-187,387	240,947	-0,086	0,103
-186,373	-92,627	0,073	0,015
-185,358	-93,471	-0,077	-0,015
-184,344	-200,000	-0,004	-0,027
-183,329	800,000	0,041	0,094
-182,315	497,857	-0,020	-0,034
-181,300	-200,000	-0,010	0,127
-180,285	-118,720	0,052	0,006
-179,271	-200,000	-0,001	0,035
-178,256	-200,000	0,020	-0,089
-177,242	207,224	0,036	0,041
-176,227	-200,000	-0,011	0,161
-175,212	308,113	-0,025	-0,034
-174,198	-125,068	-0,117	-0,013
-173,183	60,141	0,010	-0,007
-172,169	-68,580	-0,060	0,017
-171,154	-44,023	-0,063	0,023
-170,139	-200,000	-0,007	0,061
-169,125	-200,000	-0,008	-0,046
-168,110	-27,678	0,037	-0,015
-167,096	65,679	-0,072	0,053
-166,081	131,401	0,039	-0,036
-165,066	426,146	0,120	-0,187
-164,052	189,991	-0,068	0,074
-163,037	217,995	-0,025	0,028
-162,023	23,005	0,074	0,044
-161,008	125,943	-0,082	0,074
-159,993	-141,711	-0,155	0,011
-158,979	356,708	-0,047	-0,067
-157,964	-117,700	-0,052	0,007
-156,950	-15,206	-0,055	0,025
-155,935	44,317	0,069	-0,045
-154,920	800,000	-0,031	-0,094
-153,906	800,000	0,020	0,048
-152,891	340,030	-0,026	-0,036
-151,877	-42,172	-0,148	0,054
-150,862	-153,007	-0,095	-0,005
-149,847	-93,820	0,049	0,010
-148,833	-200,000	0,001	0,188
-147,818	800,000	0,032	0,079
-146,804	-160,332	-0,160	0,006
-145,789	-134,555	0,024	-0,002
-144,775	-53,851	-0,133	-0,043
-143,760	55,363	-0,043	0,030
-142,745	-200,000	-0,007	-0,084
-141,731	145,433	-0,032	-0,031
-140,716	361,545	0,009	-0,014
-139,702	-152,470	0,158	0,008
-138,687	-119,097	-0,097	-0,012
-137,672	-200,000	-0,001	-0,007
-136,658	25,514	-0,117	-0,070
-135,643	290,779	0,083	-0,109
-134,629	800,000	-0,058	-0,172
-133,614	201,342	0,057	0,063
-132,599	206,628	0,090	0,101
-131,585	-11,513	-0,091	0,043
-130,570	161,138	-0,008	-0,008
-129,556	8,493	0,065	-0,035
-128,541	369,356	0,025	-0,037
-127,526	800,000	0,014	0,033
-126,512	800,000	-0,041	-0,094
-125,497	-92,308	0,104	-0,021
-124,483	-57,029	-0,006	-0,002
-123,468	-10,335	-0,112	-0,053
-122,453	256,714	0,028	0,035
-121,439	478,935	-0,066	-0,107
