DTS Sentinel unit serial number:	SN410029Multiplexer serial number:	ORYXHardware model number:	OX2-SRSoftware version number:	ORYX F/W v4,00 Oryx Data Collector v3.7.2.0data status	okinstallation	B6 Nyhavnadifferential loss correction	single-endedforward channel	channel 2reverse channel	N/Adate	2023/12/10time	02:45:08forward acquisition time	300,00reverse acquisition time	0,00gamma	499,1914k internal	0,3125k external	0,3125temperature offset calibration	1,0000default loss term (dB/km)	0,3820temperature slope calibration	1,0000multiplexer offset coefficient	1,0000multiplexer slope coefficient	1,0000fibre end	0,00T internal ref (°C)	21,96T ext. ref 1 (°C)	5,80T ext. ref 2 (°C)	5,79length (m)	temperature (°C)	Stokes	anti-Stokes-744,400	169,929	-0,099	-0,105
-743,385	-94,643	-0,283	0,057
-742,371	800,000	-0,018	0,058
-741,356	-53,633	-0,194	0,066
-740,342	180,960	0,023	-0,025
-739,327	-94,652	-0,202	-0,041
-738,312	-170,118	-0,118	0,003
-737,298	-45,423	-0,303	0,111
-736,283	-77,428	0,082	-0,021
-735,269	75,002	-0,263	0,206
-734,254	-129,862	0,117	0,012
-733,239	-93,462	-0,303	-0,062
-732,225	-118,251	0,014	-0,002
-731,210	-72,166	-0,079	-0,022
-730,196	230,277	0,064	-0,078
-729,181	-20,535	-0,115	-0,052
-728,167	-200,000	0,007	0,057
-727,152	212,538	-0,130	-0,153
-726,137	-69,456	-0,072	0,020
-725,123	265,162	-0,044	-0,058
-724,108	800,000	-0,082	-0,179
-723,094	3,267	0,054	-0,029
-722,079	-200,000	-0,071	-0,257
-721,064	-200,000	0,001	-0,035
-720,050	128,805	-0,054	-0,051
-719,035	-16,302	-0,024	-0,011
-718,021	-95,204	0,019	-0,004
-717,006	-112,203	-0,166	-0,025
-715,991	800,000	-0,027	-0,070
-714,977	701,699	-0,052	0,103
-713,962	-123,332	-0,110	0,013
-712,948	698,877	0,028	-0,055
-711,933	535,276	-0,053	-0,094
-710,918	-137,927	0,188	-0,015
-709,904	-5,959	-0,063	0,032
-708,889	20,125	0,083	-0,050
-707,875	213,210	0,023	0,027
-706,860	58,956	0,121	-0,088
-705,845	43,478	-0,102	0,069
-704,831	800,000	-0,019	0,042
-703,816	-200,000	0,005	-0,074
-702,802	114,651	-0,051	-0,046
-701,787	-200,000	0,002	-0,107
-700,772	-85,273	-0,022	0,005
-699,758	-200,000	-0,004	0,062
-698,743	-92,622	0,070	0,015
-697,729	708,518	-0,024	-0,047
-696,714	-2,954	-0,098	0,051
-695,699	-200,000	0,007	-0,073
-694,685	-98,238	-0,081	-0,015
-693,670	208,562	-0,086	-0,100
-692,656	139,946	-0,087	-0,085
-691,641	-200,000	0,002	-0,055
-690,627	-46,324	0,068	-0,025
-689,612	-29,578	-0,045	0,019
-688,597	187,177	-0,026	0,029
-687,583	800,000	0,020	-0,048
-686,568	800,000	0,035	-0,076
-685,554	39,686	-0,033	-0,022
-684,539	60,855	-0,078	-0,057
-683,524	-150,590	-0,023	-0,001
-682,510	-45,661	0,049	0,018
-681,495	5,270	0,079	0,043
-680,481	113,754	0,021	0,019
-679,466	800,000	0,063	-0,137
-678,451	147,198	-0,052	0,052
-677,437	69,492	0,083	0,063
-676,422	-123,263	-0,123	-0,014
-675,408	-173,632	-0,140	0,003
-674,393	-164,564	-0,093	-0,003
-673,378	50,278	-0,043	-0,030
-672,364	-200,000	0,002	-0,041
-671,349	294,392	0,075	0,102
-670,335	-168,997	0,073	-0,002
-669,320	452,263	0,020	0,033
-668,305	127,584	0,113	0,107
-667,291	96,394	-0,057	0,048
-666,276	-200,000	-0,009	-0,103
-665,262	442,384	-0,031	-0,051
-664,247	322,079	-0,069	-0,097
-663,232	-200,000	-0,036	-0,132
-662,218	205,136	0,061	0,070
-661,203	800,000	-0,049	0,112
-660,189	-40,805	0,128	-0,049
-659,174	-200,000	0,021	-0,138
-658,159	305,738	0,044	-0,061
-657,145	213,741	-0,044	0,051
-656,130	27,803	-0,066	-0,041
-655,116	91,841	-0,019	0,016
-654,101	65,872	-0,126	0,095
-653,086	-200,000	-0,008	-0,034
-652,072	503,494	-0,041	-0,070
-651,057	-19,785	-0,082	0,038
-650,043	800,000	-0,043	-0,100
-649,028	-59,547	-0,090	-0,029
-648,014	348,113	0,089	-0,131
-646,999	-200,000	0,003	0,024
-645,984	800,000	0,041	0,093
-644,970	-200,000	0,034	0,128
-643,955	217,492	-0,084	-0,099
-642,941	-200,000	0,021	-0,162
-641,926	-200,000	0,006	0,034
-640,911	136,478	0,024	-0,023
-639,897	-200,000	0,002	0,154
-638,882	595,154	-0,058	0,107
-637,868	549,711	0,048	-0,086
-636,853	800,000	0,036	-0,095
-635,838	501,664	-0,066	-0,113
-634,824	37,736	-0,014	0,009
-633,809	800,000	0,023	0,056
-632,795	-163,709	0,116	-0,004
-631,780	-32,264	0,050	0,020
-630,765	42,469	-0,079	-0,054
-629,751	126,977	-0,038	-0,035
-628,736	482,240	0,030	-0,051
-627,722	-200,000	-0,005	-0,073
-626,707	36,627	-0,078	0,051
-625,692	-160,802	0,116	0,004
-624,678	-44,894	-0,113	-0,041
-623,663	603,070	0,061	-0,113
-622,649	-27,470	-0,128	-0,055
-621,634	-200,000	-0,003	0,118
-620,619	-200,000	-0,020	-0,086
-619,605	-23,801	0,128	0,057
-618,590	800,000	0,010	0,026
-617,576	-134,031	-0,059	0,005
-616,561	454,222	0,087	0,144
-615,546	45,134	0,101	-0,069
-614,532	800,000	-0,035	-0,103
-613,517	-68,363	0,075	-0,022
-612,503	-99,665	-0,062	-0,011
-611,488	-200,000	-0,002	-0,014
-610,474	-200,000	-0,018	0,145
-609,459	800,000	-0,032	0,073
-608,444	-200,000	-0,006	0,111
-607,430	-92,242	-0,126	-0,026
-606,415	-200,000	-0,020	-0,077
-605,401	434,552	0,038	0,062
-604,386	800,000	0,029	0,083
-603,371	-200,000	-0,009	-0,067
-602,357	85,910	-0,138	0,112
-601,342	-147,007	-0,027	0,002
-600,328	7,308	-0,083	-0,046
-599,313	-168,915	0,073	0,002
-598,298	-104,120	0,136	0,023
-597,284	80,271	0,064	-0,051
-596,269	-60,027	0,063	-0,020
-595,255	-27,124	-0,173	0,074
-594,240	89,876	0,053	-0,044
-593,225	181,966	-0,154	-0,168
-592,211	661,058	-0,029	-0,056
-591,196	-79,099	-0,027	-0,007
-590,182	-94,653	0,045	-0,009
-589,167	529,289	-0,032	-0,056
-588,152	800,000	-0,025	0,064
-587,138	76,487	-0,096	-0,075
-586,123	24,477	-0,077	0,047
-585,109	191,239	-0,072	-0,080
-584,094	688,860	-0,080	-0,156
-583,079	-29,611	0,084	-0,035
-582,065	407,729	0,035	0,055
-581,050	-43,836	-0,107	-0,040
-580,036	55,036	0,012	0,009
-579,021	-200,000	-0,005	0,052
-578,006	377,358	-0,079	-0,120
-576,992	800,000	-0,032	-0,091
-575,977	-130,800	0,132	-0,013
-574,963	-77,516	-0,015	-0,004
-573,948	678,881	-0,012	0,023
-572,934	137,301	0,025	-0,024
-571,919	-200,000	0,010	-0,045
-570,904	-43,044	0,086	-0,032
-569,890	800,000	0,063	-0,182
-568,875	-200,000	-0,006	-0,077
-567,861	-47,684	0,105	0,038
-566,846	-87,576	0,163	0,036
-565,831	-44,642	-0,035	0,013
-564,817	140,262	-0,113	-0,111
-563,802	23,381	-0,015	0,009
-562,788	-200,000	0,012	-0,083
-561,773	-95,640	0,057	-0,011
-560,758	-200,000	-0,002	0,086
-559,744	-181,527	0,171	0,002
-558,729	-73,774	-0,020	-0,005
-557,715	800,000	-0,053	0,111
-556,700	542,746	-0,059	-0,105
-555,685	264,036	0,066	0,084
-554,671	-30,597	0,097	0,041
-553,656	-110,975	0,040	-0,006
-552,642	361,542	0,070	0,104
-551,627	-69,321	-0,097	0,027
-550,612	23,383	-0,081	-0,049
-549,598	-121,748	0,047	0,006
-548,583	-200,000	0,021	-0,162
-547,569	101,086	-0,099	0,085
-546,554	366,978	0,063	-0,094
-545,539	800,000	0,043	-0,129
-544,525	386,202	-0,048	-0,073
-543,510	433,692	0,019	-0,031
-542,496	-200,000	-0,019	-0,126
-541,481	-200,000	0,013	0,060
-540,466	-7,646	0,116	0,058
-539,452	-28,041	0,090	0,038
-538,437	-200,000	-0,015	0,234
-537,423	-49,491	0,092	0,032
-536,408	-25,356	-0,178	0,077
-535,393	-200,000	-0,022	-0,109
-534,379	-200,000	-0,008	-0,138
-533,364	-200,000	0,009	-0,047
-532,350	-128,614	-0,053	-0,005
-531,335	148,319	0,105	-0,105
-530,321	-33,333	0,092	0,037
-529,306	-6,275	0,016	0,008
-528,291	66,612	-0,118	-0,089
-527,277	131,905	0,042	-0,040
-526,262	-108,407	-0,032	0,005
-525,248	800,000	-0,041	0,098
-524,233	-158,172	0,207	-0,009
-523,218	483,853	-0,064	0,107
-522,204	38,647	-0,084	-0,056
-521,189	16,685	-0,091	-0,053
-520,175	-61,396	-0,014	0,004
-519,160	-4,933	-0,041	-0,021
-518,145	800,000	0,024	-0,050
-517,131	234,906	-0,052	0,063
-516,116	97,669	0,108	-0,092
-515,102	-30,226	0,048	-0,020
-514,087	-27,139	0,076	0,033
-513,072	83,510	-0,037	-0,029
-512,058	616,109	-0,048	-0,089
-511,043	-11,442	-0,079	0,038
-510,029	-200,000	0,006	0,025
-509,014	800,000	0,071	0,163
-507,999	-200,000	0,012	-0,093
-506,985	30,428	0,028	0,018
-505,970	82,147	0,022	-0,018
-504,956	800,000	-0,055	-0,128
-503,941	800,000	-0,057	-0,130
-502,926	48,810	-0,080	0,055
-501,912	122,216	0,053	-0,049
-500,897	-126,536	0,096	-0,010
-499,883	581,921	0,047	-0,085
-498,868	800,000	-0,090	-0,208
-497,853	191,541	-0,050	-0,056
-496,839	-139,916	0,061	0,005
-495,824	63,620	0,077	-0,057
-494,810	800,000	-0,026	0,083
-493,795	8,539	0,112	-0,062
-492,781	800,000	0,005	-0,013
-491,766	-80,581	0,090	-0,022
-490,751	763,538	-0,066	-0,132
-489,737	-56,157	0,098	0,032
-488,722	168,371	0,063	-0,066
-487,708	-200,000	-0,024	0,138
-486,693	-31,106	0,082	-0,034
-485,678	379,933	0,033	0,050
-484,664	81,583	-0,098	-0,078
-483,649	800,000	-0,047	0,103
-482,635	31,129	-0,114	-0,072
-481,620	-200,000	-0,018	0,086
-480,605	-150,456	-0,074	0,004
-479,591	417,069	-0,055	0,087
-478,576	252,727	-0,044	0,056
-477,562	-142,303	-0,114	-0,008
-476,547	800,000	0,028	0,082
-475,532	-97,946	0,092	-0,017
-474,518	-200,000	-0,004	-0,111
-473,503	398,432	-0,051	-0,079
-472,489	-200,000	0,028	0,151
-471,474	-200,000	0,011	0,149
-470,459	-157,942	-0,075	-0,003
-469,445	486,134	0,022	-0,037
-468,430	-114,938	0,063	0,009
-467,416	-200,000	0,054	-0,215
-466,401	3,593	0,081	0,043
-465,386	246,399	0,053	0,066
-464,372	-100,930	-0,140	0,025
-463,357	468,926	0,056	0,092
-462,343	-97,403	-0,117	-0,022
-461,328	-200,000	-0,050	0,204
-460,313	104,797	0,085	-0,074
-459,299	-34,560	0,064	0,026
-458,284	393,068	-0,106	0,164
-457,270	757,816	0,055	0,111
-456,255	800,000	-0,052	0,155
-455,241	-200,000	-0,020	-0,081
-454,226	-200,000	0,010	0,033
-453,211	-200,000	-0,038	0,201
-452,197	-178,820	0,084	-0,001
-451,182	289,847	0,049	0,065
-450,168	-200,000	0,001	-0,109
-449,153	-6,221	-0,034	-0,017
-448,138	523,347	-0,119	-0,207
-447,124	800,000	-0,012	-0,037
-446,109	-200,000	0,004	0,080
-445,095	-69,528	-0,049	0,014
-444,080	271,884	0,095	0,123
-443,065	-167,812	0,101	0,003
-442,051	137,014	0,016	0,015
-441,036	-200,000	-0,011	0,128
-440,022	-188,790	-0,127	0,001
-439,007	800,000	-0,048	0,130
-437,992	-47,253	-0,105	-0,038
-436,978	-200,000	-0,010	0,172
-435,963	91,049	-0,092	0,076
-434,949	266,799	0,035	-0,046
-433,934	559,720	-0,083	-0,149
-432,919	186,060	-0,050	0,055
-431,905	38,482	0,092	-0,060
-430,890	800,000	-0,014	-0,036
-429,876	80,958	0,104	-0,082
-428,861	77,965	0,037	0,029
-427,846	174,739	-0,040	-0,043
-426,832	-200,000	0,014	-0,051
-425,817	51,998	-0,034	-0,024
-424,803	-75,232	-0,089	-0,023
-423,788	800,000	-0,014	0,044
-422,773	-200,000	0,028	0,136
-421,759	71,412	-0,117	0,089
-420,744	800,000	-0,019	0,050
-419,730	59,527	-0,071	0,051
-418,715	151,798	-0,040	-0,040
-417,701	98,129	0,098	-0,083
-416,686	800,000	-0,031	0,072
-415,671	119,811	-0,078	0,071
-414,657	87,089	-0,103	0,084
-413,642	-34,048	0,088	-0,035
-412,628	-34,776	-0,049	-0,020
-411,613	800,000	0,032	-0,084
-410,598	-200,000	0,002	0,053
-409,584	-148,568	0,044	0,003
-408,569	105,455	-0,064	0,055
-407,555	800,000	-0,045	0,097
-406,540	-200,000	-0,020	0,080
-405,525	-200,000	-0,003	0,044
-404,511	689,744	-0,079	-0,152
-403,496	-200,000	0,016	-0,084
-402,482	800,000	-0,031	-0,066
-401,467	18,428	0,028	0,016
-400,452	93,999	0,061	0,051
-399,438	347,078	0,056	0,081
-398,423	504,624	0,039	-0,067
-397,409	-200,000	0,005	-0,163
-396,394	382,497	-0,039	-0,059
-395,379	93,429	-0,154	-0,128
-394,365	-26,323	0,224	-0,096
-393,350	-200,000	-0,009	0,139
-392,336	-200,000	-0,016	0,060
-391,321	-200,000	0,018	0,059
-390,306	340,077	0,047	-0,067
-389,292	-200,000	0,004	0,015
-388,277	800,000	0,038	-0,108
-387,263	800,000	-0,016	0,045
-386,248	609,351	-0,047	0,086
-385,233	721,763	-0,057	0,112
-384,219	-47,945	-0,015	0,005
-383,204	-142,607	-0,152	-0,011
-382,190	21,017	0,088	0,052
-381,175	-200,000	0,011	0,055
-380,160	800,000	0,022	0,058
-379,146	-200,000	0,025	0,154
-378,131	800,000	-0,024	0,053
-377,117	219,980	0,017	-0,020
-376,102	-200,000	-0,040	0,158
-375,088	636,651	0,124	-0,232
-374,073	-48,309	-0,020	0,007
-373,058	-200,000	-0,001	-0,009
-372,044	-200,000	-0,011	-0,126
-371,029	-200,000	0,009	0,054
-370,015	-111,965	0,123	-0,018
-369,000	24,988	0,118	0,072
-367,985	-46,622	0,036	-0,013
-366,971	318,147	0,035	-0,049
-365,956	800,000	0,015	0,036
-364,942	62,050	0,039	0,028
-363,927	-200,000	-0,011	-0,054
-362,912	44,132	-0,006	-0,004
-361,898	84,473	-0,032	0,025
-360,883	311,671	-0,092	-0,127
-359,869	77,416	-0,117	-0,091
-358,854	-21,108	-0,105	-0,047
-357,839	800,000	0,047	0,103
-356,825	-200,000	0,009	0,118
-355,810	118,998	0,079	0,072
-354,796	284,183	0,088	-0,117
-353,781	-118,248	-0,069	0,009
-352,766	-103,625	-0,035	0,006
-351,752	256,292	0,033	-0,042
-350,737	-116,014	0,107	-0,014
-349,723	704,865	-0,039	-0,075
-348,708	-130,277	-0,085	0,008
-347,693	277,551	0,079	0,103
-346,679	267,440	-0,016	-0,020
-345,664	800,000	-0,067	-0,182
-344,650	207,659	-0,093	0,106
-343,635	-3,101	0,050	-0,026
-342,620	-200,000	0,016	0,063
-341,606	-200,000	-0,022	0,101
-340,591	16,805	0,039	0,022
-339,577	-200,000	-0,115	0,000
-338,562	800,000	0,087	-0,200
-337,548	-61,294	0,140	0,043
-336,533	321,221	0,068	0,095
-335,518	467,511	-0,055	0,091
-334,504	800,000	-0,028	-0,083
-333,489	800,000	0,055	0,128
-332,475	-200,000	-0,001	-0,054
-331,460	7,053	0,020	-0,011
-330,445	-93,733	-0,143	0,029
-329,431	343,215	0,133	0,191
-328,416	-130,194	-0,041	0,004
-327,402	230,999	0,033	0,040
-326,387	69,727	-0,138	-0,104
-325,372	254,875	-0,062	-0,078
-324,358	-27,369	-0,036	-0,015
-323,343	-200,000	-0,027	-0,105
-322,329	-200,000	0,015	0,097
-321,314	800,000	0,060	0,169
-320,299	-200,000	0,019	-0,092
-319,285	800,000	0,037	-0,092
-318,270	-4,567	0,123	-0,062
-317,256	37,266	0,072	0,047
-316,241	800,000	0,043	0,132
-315,226	-142,535	-0,048	0,003
-314,212	-200,000	0,008	0,033
-313,197	450,274	0,025	-0,041
-312,183	-200,000	0,004	0,060
-311,168	-200,000	-0,031	-0,157
-310,153	-200,000	0,002	-0,051
-309,139	-150,895	0,098	0,005
-308,124	800,000	0,032	0,098
-307,110	213,687	0,074	0,086
-306,095	72,639	0,093	0,071
-305,080	800,000	-0,031	-0,066
-304,066	560,220	0,050	-0,089
-303,051	-200,000	-0,006	-0,087
-302,037	800,000	0,055	-0,153
-301,022	54,850	-0,042	0,030
-300,008	76,469	0,085	-0,066
-298,993	-151,952	0,073	0,004
-297,978	15,953	-0,106	0,061
-296,964	28,071	-0,062	0,038
-295,949	-200,000	0,003	-0,032
-294,935	69,506	-0,011	0,008
-293,920	73,008	0,018	-0,014
-292,905	658,535	-0,015	0,028
-291,891	-118,496	0,087	-0,011
-290,876	800,000	0,048	0,135
-289,862	-200,000	0,024	0,133
-288,847	126,340	-0,082	-0,076
-287,832	-83,786	0,064	-0,015
-286,818	-26,041	-0,075	0,032
-285,803	258,644	0,034	-0,042
-284,789	800,000	-0,055	0,138
-283,774	-19,291	-0,029	0,013
-282,759	-74,545	-0,053	-0,014
-281,745	-42,228	-0,059	-0,022
-280,730	-200,000	-0,027	-0,104
-279,716	204,202	-0,078	-0,088
-278,701	679,262	-0,033	0,064
-277,686	256,720	0,091	0,114
-276,672	-200,000	-0,016	0,077
-275,657	-200,000	0,009	-0,078
-274,643	800,000	-0,026	0,056
-273,628	8,608	-0,132	-0,073
-272,613	-130,452	-0,054	-0,005
-271,599	800,000	0,018	0,038
-270,584	542,024	-0,010	0,017
-269,570	-79,673	0,024	0,006
-268,555	260,615	0,034	0,043
-267,540	-13,563	-0,068	0,032
-266,526	800,000	-0,022	-0,055
-265,511	9,732	0,086	0,047
-264,497	-67,598	0,052	0,015
-263,482	207,660	0,101	0,115
-262,467	51,216	-0,073	0,051
-261,453	-129,048	0,040	0,004
-260,438	36,712	0,068	-0,044
-259,424	-58,730	-0,096	-0,030
-258,409	800,000	0,012	0,034
-257,395	104,777	-0,106	0,091
-256,380	-200,000	0,038	0,126
-255,365	126,872	0,007	0,006
-254,351	374,823	0,083	0,123
-253,336	-200,000	0,010	0,093
-252,322	800,000	-0,011	0,023
-251,307	104,145	-0,052	-0,045
-250,292	-200,000	0,001	0,034
-249,278	61,143	0,052	0,037
-248,263	-27,349	-0,095	-0,040
-247,249	81,532	-0,064	-0,051
-246,234	-116,527	-0,019	-0,003
-245,219	548,582	-0,056	-0,099
-244,205	150,001	-0,073	-0,072
-243,190	138,017	0,160	0,153
-242,176	214,837	0,088	0,102
-241,161	-63,873	0,024	-0,007
-240,146	-159,113	-0,049	-0,002
-239,132	-12,639	0,100	0,048
-238,117	113,007	0,060	-0,053
-237,103	800,000	0,062	-0,171
-236,088	167,297	-0,120	0,124
-235,073	-200,000	0,024	0,116
-234,059	-178,513	0,023	-0,000
-233,044	-27,907	0,079	-0,033
-232,030	-200,000	-0,008	0,046
-231,015	-200,000	-0,000	-0,175
-230,000	-200,000	0,019	-0,070
-228,986	800,000	-0,018	-0,056
-227,971	-73,152	-0,088	0,023
-226,957	-6,730	0,088	0,044
-225,942	-79,144	-0,041	0,010
-224,927	559,882	0,100	0,177
-223,913	357,078	-0,012	0,017
-222,898	800,000	-0,014	-0,040
-221,884	-200,000	0,005	-0,059
-220,869	-25,041	-0,047	0,020
-219,855	-125,780	0,071	0,008
-218,840	154,270	0,023	0,023
-217,825	597,703	0,073	-0,132
-216,811	-2,235	-0,048	-0,025
-215,796	-200,000	-0,018	-0,138
-214,782	202,138	0,025	0,028
-213,767	484,998	0,031	-0,053
-212,752	-37,714	0,148	-0,057
-211,738	41,782	-0,034	-0,022
-210,723	155,069	0,012	0,012
-209,709	550,663	-0,052	-0,091
-208,694	-200,000	0,004	0,149
-207,679	218,225	-0,042	-0,049
-206,665	121,001	0,109	0,099
-205,650	-200,000	0,028	0,121
-204,636	132,660	0,161	0,151
-203,621	1,065	-0,082	0,043
-202,606	-86,133	-0,117	-0,026
-201,592	-200,000	-0,004	-0,048
-200,577	-200,000	0,007	-0,040
-199,563	200,764	0,070	-0,079
-198,548	800,000	0,012	0,036
-197,533	-4,895	0,169	0,085
-196,519	-83,196	0,066	0,015
-195,504	132,274	-0,096	-0,091
-194,490	-200,000	-0,013	-0,052
-193,475	191,497	-0,067	0,073
-192,460	-200,000	0,016	-0,084
-191,446	800,000	0,086	-0,200
-190,431	-200,000	-0,017	0,062
-189,417	-11,176	-0,115	0,055
-188,402	-95,487	-0,024	0,005
-187,387	204,547	-0,075	-0,085
-186,373	-200,000	-0,004	-0,121
-185,358	-200,000	-0,010	-0,050
-184,344	-200,000	0,073	0,000
-183,329	100,767	0,062	-0,053
-182,315	-200,000	-0,004	-0,132
-181,300	-119,117	-0,058	0,007
-180,285	-19,038	-0,069	-0,031
-179,271	-105,611	-0,063	0,010
-178,256	277,594	-0,033	-0,042
-177,242	-200,000	0,007	0,160
-176,227	-141,426	-0,098	-0,007
-175,212	154,494	-0,024	0,024
-174,198	44,109	-0,137	-0,091
-173,183	-200,000	0,016	0,084
-172,169	48,258	0,073	0,050
-171,154	-200,000	-0,024	-0,119
-170,139	-88,896	-0,120	-0,026
-169,125	19,216	0,062	-0,036
-168,110	116,394	0,119	0,107
-167,096	584,326	-0,020	-0,036
-166,081	-29,637	0,143	0,059
-165,066	-37,458	-0,121	-0,047
-164,052	-151,155	-0,104	-0,006
-163,037	107,746	0,039	-0,034
-162,023	-25,053	-0,061	0,026
-161,008	565,878	-0,107	0,189
-159,993	68,459	-0,071	0,053
-158,979	40,591	0,015	0,010
-157,964	-200,000	0,008	-0,061
-156,950	202,920	-0,011	-0,013
-155,935	390,756	0,039	-0,059
-154,920	800,000	-0,042	-0,109
-153,906	-200,000	0,049	0,168
-152,891	259,875	0,073	0,092
-151,877	240,161	-0,034	0,041
-150,862	175,928	-0,036	-0,038
-149,847	617,949	-0,060	-0,110
-148,833	158,500	0,087	-0,088
-147,818	-21,906	-0,060	-0,026
-146,804	190,603	-0,055	0,060
-145,789	-82,514	-0,019	-0,005
-144,775	-200,000	0,019	-0,106
-143,760	800,000	-0,016	-0,050
-142,745	-200,000	0,009	-0,163
-141,731	-37,579	0,091	-0,035
-140,716	-200,000	-0,000	0,122
-139,702	153,826	0,027	0,027
-138,687	800,000	0,019	-0,061
-137,672	800,000	0,029	-0,072
-136,658	208,816	-0,033	-0,038
-135,643	-16,046	-0,066	0,030
-134,629	-200,000	-0,017	0,098
-133,614	800,000	0,012	0,030
-132,599	-73,094	0,166	-0,044
-131,585	-26,998	0,027	0,012
-130,570	-9,921	-0,139	-0,067
-129,556	7,385	-0,043	-0,023
-128,541	129,365	0,081	-0,075
-127,526	-200,000	-0,007	-0,047
-126,512	312,663	-0,021	0,029
-125,497	800,000	-0,016	0,033
-124,483	-200,000	-0,010	-0,052
-123,468	265,543	0,052	-0,066
-122,453	236,556	-0,019	0,023
-121,439	800,000	-0,028	0,068
-120,424	43,916	-0,042	-0,028
-119,410	90,116	0,104	-0,084
