DTS Sentinel unit serial number:	SN410029Multiplexer serial number:	ORYXHardware model number:	OX2-SRSoftware version number:	ORYX F/W v4,00 Oryx Data Collector v3.7.2.0data status	okinstallation	B6 Nyhavnadifferential loss correction	single-endedforward channel	channel 2reverse channel	N/Adate	2023/12/07time	18:45:08forward acquisition time	300,00reverse acquisition time	0,00gamma	499,1914k internal	0,3163k external	0,3163temperature offset calibration	1,0000default loss term (dB/km)	0,3820temperature slope calibration	1,0000multiplexer offset coefficient	1,0000multiplexer slope coefficient	1,0000fibre end	0,00T internal ref (°C)	14,19T ext. ref 1 (°C)	-2,83T ext. ref 2 (°C)	-2,82length (m)	temperature (°C)	Stokes	anti-Stokes-744,400	10,736	0,132	0,074
-743,385	-103,616	-0,309	0,053
-742,371	109,468	0,081	0,072
-741,356	-65,902	-0,228	0,067
-740,342	-108,866	0,072	0,011
-739,327	-94,114	-0,190	0,038
-738,312	78,927	0,035	-0,027
-737,298	-153,119	-0,316	-0,016
-736,283	-136,459	0,161	0,014
-735,269	-64,218	-0,382	0,114
-734,254	129,374	0,061	-0,057
-733,239	-55,890	-0,479	-0,156
-732,225	-108,096	0,213	-0,034
-731,210	68,618	-0,084	0,063
-730,196	-200,000	0,015	0,124
-729,181	220,379	-0,068	0,081
-728,167	-46,049	-0,094	-0,034
-727,152	800,000	0,024	-0,075
-726,137	-58,319	-0,149	0,047
-725,123	0,849	-0,075	0,039
-724,108	-84,493	0,028	-0,006
-723,094	33,924	-0,117	-0,075
-722,079	260,044	-0,044	-0,057
-721,064	217,333	0,061	-0,071
-720,050	-113,240	-0,103	0,015
-719,035	41,647	-0,168	0,112
-718,021	-200,000	-0,012	0,105
-717,006	-32,652	-0,109	-0,045
-715,991	-139,058	-0,139	-0,011
-714,977	-200,000	-0,005	-0,029
-713,962	-108,154	-0,189	-0,030
-712,948	45,159	0,121	-0,082
-711,933	625,760	-0,011	0,021
-710,918	-101,392	0,048	0,008
-709,904	-52,563	-0,130	0,044
-708,889	-92,991	-0,129	-0,026
-707,875	800,000	-0,064	-0,152
-706,860	31,959	-0,165	-0,104
-705,845	-137,254	-0,154	0,013
-704,831	800,000	0,035	0,094
-703,816	-94,715	-0,145	-0,029
-702,802	120,972	0,087	-0,080
-701,787	-90,882	-0,047	0,010
-700,772	187,054	-0,070	-0,077
-699,758	-6,387	-0,047	-0,023
-698,743	-82,595	0,110	0,026
-697,729	554,803	0,037	0,066
-696,714	94,686	-0,111	-0,093
-695,699	-109,930	0,035	0,005
-694,685	-113,968	-0,032	-0,004
-693,670	-42,144	-0,054	-0,020
-692,656	-200,000	0,012	0,119
-691,641	-200,000	-0,037	-0,132
-690,627	-200,000	0,029	0,093
-689,612	331,442	-0,024	0,034
-688,597	88,323	-0,083	-0,067
-687,583	800,000	-0,058	0,172
-686,568	87,801	-0,051	-0,041
-685,554	800,000	-0,041	-0,100
-684,539	24,249	-0,060	0,036
-683,524	-161,374	-0,124	0,005
-682,510	20,488	0,063	0,037
-681,495	-60,539	-0,062	-0,019
-680,481	225,077	-0,081	-0,096
-679,466	800,000	-0,052	-0,158
-678,451	-47,707	-0,141	0,050
-677,437	-36,660	0,082	0,032
-676,422	800,000	0,010	0,026
-675,408	131,480	-0,154	0,145
-674,393	800,000	-0,006	-0,014
-673,378	490,251	-0,040	-0,068
-672,364	386,030	-0,037	-0,055
-671,349	800,000	-0,007	-0,023
-670,335	-200,000	0,031	-0,104
-669,320	-200,000	0,009	0,061
-668,305	-200,000	-0,008	-0,098
-667,291	315,450	-0,024	-0,033
-666,276	-103,301	-0,127	0,022
-665,262	60,380	-0,080	-0,058
-664,247	-167,391	0,062	-0,002
-663,232	138,418	0,137	-0,132
-662,218	243,893	-0,061	-0,076
-661,203	-200,000	-0,032	0,105
-660,189	-110,168	-0,142	0,022
-659,174	-128,307	0,092	0,009
-658,159	16,919	0,027	0,016
-657,145	-200,000	0,002	-0,103
-656,130	800,000	0,048	-0,107
-655,116	-200,000	-0,008	0,036
-654,101	-200,000	-0,057	0,214
-653,086	60,882	-0,075	0,055
-652,072	224,509	0,036	0,043
-651,057	-30,182	-0,110	-0,046
-650,043	298,570	0,070	-0,095
-649,028	-200,000	-0,001	-0,090
-648,014	-26,889	-0,021	0,009
-646,999	43,362	0,098	0,065
-645,984	-90,557	-0,073	-0,015
-644,970	-200,000	0,045	-0,156
-643,955	-24,209	0,030	-0,013
-642,941	161,456	-0,050	-0,052
-641,926	44,329	0,052	0,035
-640,911	-108,291	0,095	-0,015
-639,897	37,512	-0,022	0,014
-638,882	-73,004	-0,057	0,015
-637,868	-200,000	0,021	0,147
-636,853	-151,541	-0,127	0,007
-635,838	337,700	-0,032	0,046
-634,824	800,000	-0,022	-0,049
-633,809	800,000	-0,010	0,022
-632,795	-200,000	0,017	0,058
-631,780	-116,145	0,043	-0,006
-630,765	469,983	0,070	0,116
-629,751	800,000	-0,040	0,111
-628,736	-43,812	0,076	-0,028
-627,722	-38,935	-0,107	0,041
-626,707	206,957	0,013	0,014
-625,692	666,948	-0,014	0,026
-624,678	297,710	-0,036	-0,049
-623,663	329,587	-0,060	0,084
-622,649	-69,682	-0,045	0,013
-621,634	800,000	-0,003	-0,010
-620,619	-200,000	0,004	-0,066
-619,605	-200,000	-0,003	-0,096
-618,590	-144,825	-0,178	0,012
-617,576	-149,962	0,059	-0,003
-616,561	347,184	-0,027	0,040
-615,546	16,882	0,077	-0,044
-614,532	250,503	0,013	0,016
-613,517	422,700	0,019	0,031
-612,503	-71,537	-0,011	0,003
-611,488	-200,000	0,014	-0,110
-610,474	-55,527	-0,072	-0,023
-609,459	282,377	-0,056	0,073
-608,444	59,095	-0,088	-0,064
-607,430	800,000	-0,013	-0,039
-606,415	-200,000	0,003	-0,151
-605,401	-125,892	0,106	0,012
-604,386	-69,036	0,053	0,015
-603,371	45,515	-0,087	0,059
-602,357	124,440	0,132	-0,121
-601,342	505,405	-0,058	-0,099
-600,328	16,999	-0,078	0,045
-599,313	6,998	0,015	0,008
-598,298	-60,342	0,040	0,012
-597,284	346,800	0,037	-0,053
-596,269	127,455	0,096	0,090
-595,255	-200,000	0,003	0,032
-594,240	800,000	-0,036	-0,098
-593,225	-191,493	-0,175	-0,001
-592,211	498,769	0,015	0,025
-591,196	359,045	-0,090	-0,132
-590,182	-7,750	0,068	-0,034
-589,167	4,005	0,084	0,045
-588,152	800,000	0,008	0,020
-587,138	543,927	0,072	-0,126
-586,123	314,595	-0,088	-0,122
-585,109	-200,000	-0,021	-0,174
-584,094	-28,311	-0,059	-0,025
-583,079	-80,116	0,058	-0,014
-582,065	79,229	-0,045	-0,035
-581,050	289,800	0,073	-0,097
-580,036	163,140	-0,034	0,035
-579,021	788,061	-0,029	-0,059
-578,006	800,000	-0,048	-0,119
-576,992	494,070	0,084	-0,141
-575,977	103,226	-0,018	0,016
-574,963	-138,382	0,047	-0,004
-573,948	27,169	-0,187	0,114
-572,934	38,054	-0,046	0,030
-571,919	-200,000	0,025	-0,148
-570,904	72,157	-0,053	-0,040
-569,890	-200,000	-0,002	0,032
-568,875	72,781	0,142	0,108
-567,861	-123,014	0,058	0,007
-566,846	289,814	0,026	0,035
-565,831	175,751	-0,060	0,063
-564,817	800,000	-0,027	-0,075
-563,802	-200,000	-0,009	-0,101
-562,788	-160,384	-0,082	0,003
-561,773	29,973	-0,045	-0,028
-560,758	131,956	0,090	-0,085
-559,744	390,822	-0,066	0,100
-558,729	-96,141	0,087	-0,017
-557,715	800,000	-0,018	0,055
-556,700	259,445	0,051	-0,064
-555,685	-200,000	0,025	0,160
-554,671	-27,663	-0,053	0,022
-553,656	-169,996	0,128	-0,003
-552,642	-200,000	0,016	0,161
-551,627	800,000	0,008	-0,017
-550,612	800,000	-0,020	-0,057
-549,598	564,410	0,046	-0,082
-548,583	-200,000	-0,009	-0,128
-547,569	-176,854	-0,029	0,001
-546,554	4,596	-0,075	0,040
-545,539	-103,413	-0,064	0,011
-544,525	-80,941	-0,068	-0,016
-543,510	-200,000	0,005	0,032
-542,496	134,392	0,083	-0,078
-541,481	199,014	0,021	0,023
-540,466	250,897	-0,034	0,043
-539,452	800,000	0,016	0,044
-538,437	800,000	0,046	0,103
-537,423	-200,000	0,006	-0,034
-536,408	763,623	0,020	0,040
-535,393	398,696	-0,079	0,122
-534,379	800,000	0,026	-0,071
-533,364	800,000	0,039	-0,082
-532,350	264,017	-0,033	0,043
-531,335	-61,183	0,133	-0,041
-530,321	800,000	0,014	-0,030
-529,306	-200,000	-0,026	-0,103
-528,291	-200,000	-0,008	-0,030
-527,277	800,000	0,036	-0,075
-526,262	800,000	-0,020	0,061
-525,248	-200,000	0,005	-0,022
-524,233	-35,085	0,153	-0,060
-523,218	-84,759	-0,081	-0,018
-522,204	-200,000	-0,004	0,041
-521,189	149,573	0,008	-0,008
-520,175	-200,000	-0,025	-0,086
-519,160	-200,000	-0,018	0,073
-518,145	21,709	-0,084	-0,050
-517,131	1,556	0,103	-0,054
-516,116	233,905	0,119	0,143
-515,102	-0,743	0,055	0,028
-514,087	800,000	-0,063	-0,132
-513,072	-199,448	-0,141	0,001
-512,058	-200,000	0,032	-0,112
-511,043	432,316	-0,048	-0,075
-510,029	266,965	-0,019	0,025
-509,014	209,653	-0,028	0,032
-507,999	800,000	0,019	0,052
-506,985	-121,549	0,041	0,005
-505,970	280,053	-0,045	-0,058
-504,956	800,000	-0,060	-0,127
-503,941	-200,000	0,006	-0,195
-502,926	189,807	0,121	0,133
-501,912	366,106	0,044	0,065
-500,897	-13,793	-0,099	-0,046
-499,883	-135,290	0,068	0,006
-498,868	-126,078	-0,071	-0,008
-497,853	800,000	-0,037	-0,099
-496,839	-46,047	-0,049	-0,018
-495,824	-0,862	-0,029	0,015
-494,810	712,173	-0,027	0,052
-493,795	-200,000	0,011	0,104
-492,781	-125,575	-0,086	-0,009
-491,766	-129,891	0,185	0,018
-490,751	-200,000	0,011	-0,043
-489,737	800,000	0,054	-0,125
-488,722	-200,000	-0,014	0,070
-487,708	119,447	-0,078	-0,070
-486,693	-200,000	0,009	-0,051
-485,678	-28,116	-0,101	-0,042
-484,664	-166,340	0,119	-0,004
-483,649	-200,000	0,007	0,060
-482,635	165,099	0,065	0,067
-481,620	-18,790	-0,082	0,037
-480,605	-48,641	0,153	-0,053
-479,591	-153,790	0,056	-0,003
-478,576	376,435	0,009	0,013
-477,562	-54,776	-0,061	0,020
-476,547	614,788	0,030	-0,054
-475,532	70,305	-0,071	-0,053
-474,518	517,219	-0,058	0,099
-473,503	-56,161	-0,052	-0,017
-472,489	-7,795	0,142	0,070
-471,474	372,852	-0,076	-0,113
-470,459	-200,000	-0,012	-0,089
-469,445	800,000	-0,041	-0,129
-468,430	-200,000	0,001	-0,097
-467,416	-8,039	0,058	-0,029
-466,401	671,958	0,019	-0,037
-465,386	178,086	-0,076	0,081
-464,372	21,560	0,035	-0,021
-463,357	103,154	-0,051	-0,043
-462,343	-200,000	0,015	-0,132
-461,328	-88,129	-0,084	-0,018
-460,313	-63,272	0,046	-0,014
-459,299	212,838	0,134	0,154
-458,284	-200,000	-0,010	0,087
-457,270	198,675	0,066	0,073
-456,255	-69,373	-0,117	0,032
-455,241	-50,009	-0,058	-0,020
-454,226	-200,000	-0,061	-0,298
-453,211	-200,000	-0,045	-0,149
-452,197	12,208	-0,137	-0,076
-451,182	237,804	-0,045	0,054
-450,168	407,073	-0,025	-0,038
-449,153	-181,274	-0,142	0,002
-448,138	800,000	-0,031	0,097
-447,124	-200,000	0,014	-0,051
-446,109	300,355	0,044	0,060
-445,095	-55,086	-0,017	0,006
-444,080	-21,278	-0,061	0,027
-443,065	22,972	-0,109	0,065
-442,051	-163,199	-0,062	0,002
-441,036	56,220	0,057	-0,040
-440,022	60,594	-0,037	-0,026
-439,007	244,407	0,034	0,042
-437,992	373,777	0,029	0,043
-436,978	800,000	-0,022	0,045
-435,963	-135,068	0,039	-0,003
-434,949	76,546	-0,049	-0,037
-433,934	800,000	0,028	-0,079
-432,919	462,174	-0,072	0,117
-431,905	-61,701	-0,061	-0,018
-430,890	33,688	-0,071	-0,045
-429,876	-124,342	0,082	-0,009
-428,861	571,736	0,031	0,055
-427,846	-100,719	0,125	0,022
-426,832	-77,135	0,082	-0,021
-425,817	800,000	0,005	-0,011
-424,803	356,282	-0,013	-0,019
-423,788	612,344	-0,015	0,027
-422,773	119,448	0,088	0,079
-421,759	800,000	0,027	0,086
-420,744	800,000	0,036	0,090
-419,730	172,353	-0,112	-0,118
-418,715	-200,000	-0,006	-0,071
-417,701	-200,000	0,018	-0,089
-416,686	800,000	0,021	0,045
-415,671	709,420	-0,071	-0,137
-414,657	800,000	0,048	0,097
-413,642	-200,000	0,008	-0,036
-412,628	800,000	-0,019	-0,047
-411,613	81,751	0,032	0,025
-410,598	800,000	0,010	0,024
-409,584	800,000	0,042	-0,088
-408,569	-200,000	-0,007	-0,146
-407,555	-117,669	0,101	-0,013
-406,540	296,981	-0,024	-0,032
-405,525	-200,000	0,002	-0,056
-404,511	28,808	-0,051	-0,031
-403,496	-200,000	-0,029	0,156
-402,482	-200,000	-0,012	0,124
-401,467	116,859	-0,053	0,047
-400,452	592,296	0,057	0,102
-399,438	90,080	0,060	0,049
-398,423	-200,000	0,004	-0,020
-397,409	297,121	-0,096	-0,128
-396,394	-146,579	-0,136	0,008
-395,379	800,000	-0,049	-0,116
-394,365	800,000	0,061	0,150
-393,350	-118,342	-0,074	-0,009
-392,336	144,148	-0,082	0,079
-391,321	-126,757	0,048	0,005
-390,306	-121,549	-0,076	-0,009
-389,292	4,428	-0,073	-0,039
-388,277	800,000	-0,023	0,071
-387,263	-133,389	0,069	-0,006
-386,248	-16,451	0,087	-0,040
-385,233	-200,000	0,005	-0,033
-384,219	800,000	0,028	-0,080
-383,204	182,950	-0,114	-0,122
-382,190	11,663	-0,135	-0,075
-381,175	106,908	0,038	0,033
-380,160	-200,000	-0,010	0,063
-379,146	-200,000	0,002	0,148
-378,131	-200,000	0,016	0,081
-377,117	-134,873	0,069	-0,006
-376,102	-164,255	0,117	0,004
-375,088	188,448	0,015	0,016
-374,073	800,000	0,032	-0,067
-373,058	404,881	0,028	-0,043
-372,044	-13,942	0,040	-0,019
-371,029	-24,108	0,094	0,041
-370,015	800,000	-0,030	0,074
-369,000	43,862	-0,006	0,004
-367,985	-125,666	0,031	-0,003
-366,971	288,372	0,114	-0,150
-365,956	-141,588	0,052	-0,004
-364,942	-49,318	0,091	0,031
-363,927	-200,000	-0,013	-0,063
-362,912	11,239	-0,061	-0,034
-361,898	800,000	-0,050	0,129
-360,883	-200,000	-0,074	-0,000
-359,869	800,000	0,026	-0,057
-358,854	34,926	0,057	0,036
-357,839	800,000	-0,033	0,106
-356,825	130,205	0,022	-0,021
-355,810	141,233	-0,010	0,009
-354,796	-53,579	-0,032	-0,010
-353,781	-200,000	-0,006	0,020
-352,766	-200,000	0,003	0,009
-351,752	567,000	-0,039	0,069
-350,737	60,600	0,063	-0,045
-349,723	-200,000	-0,002	0,021
-348,708	-80,596	-0,093	-0,022
-347,693	-200,000	0,014	-0,156
-346,679	33,383	-0,096	-0,060
-345,664	139,657	-0,132	0,126
-344,650	-50,060	-0,020	0,007
-343,635	473,062	0,051	0,084
-342,620	-44,889	-0,039	-0,014
-341,606	154,887	0,110	0,110
-340,591	800,000	0,063	0,129
-339,577	104,291	0,060	0,051
-338,562	6,143	0,056	0,030
-337,548	192,181	0,036	-0,040
-336,533	218,911	0,059	0,068
-335,518	-69,068	0,251	0,070
-334,504	-200,000	0,012	0,079
-333,489	800,000	0,019	-0,042
-332,475	-66,999	-0,062	0,018
-331,460	-10,303	0,061	0,029
-330,445	287,030	-0,124	0,163
-329,431	-46,279	-0,015	-0,005
-328,416	-65,868	0,238	0,069
-327,402	-83,249	0,100	-0,023
-326,387	183,035	-0,123	0,131
-325,372	322,867	0,025	0,034
-324,358	-108,022	-0,217	0,034
-323,343	130,521	-0,047	0,044
-322,329	800,000	0,047	0,105
-321,314	71,659	0,025	-0,018
-320,299	123,150	0,045	0,041
-319,285	22,007	-0,084	0,049
-318,270	472,048	0,056	-0,091
-317,256	-200,000	0,002	-0,016
-316,241	393,568	-0,026	-0,039
-315,226	-60,676	-0,040	0,012
-314,212	-200,000	-0,007	0,026
-313,197	-126,347	0,034	-0,004
-312,183	-200,000	0,012	-0,126
-311,168	-200,000	-0,034	-0,116
-310,153	82,712	0,069	0,054
-309,139	122,970	0,081	-0,073
-308,124	778,907	-0,010	0,020
-307,110	-200,000	-0,010	0,042
-306,095	-200,000	0,007	0,048
-305,080	-200,000	-0,022	0,123
-304,066	-106,369	-0,083	0,013
-303,051	303,975	-0,057	0,077
-302,037	15,643	-0,099	0,056
-301,022	800,000	0,061	0,161
-300,008	91,791	0,056	0,045
-298,993	-200,000	-0,010	0,120
-297,978	800,000	0,021	0,055
-296,964	-200,000	0,025	-0,103
-295,949	-200,000	-0,035	-0,170
-294,935	-26,669	-0,047	0,020
-293,920	-200,000	0,012	-0,112
-292,905	-200,000	-0,013	-0,165
-291,891	62,170	0,052	0,037
-290,876	101,603	0,061	-0,052
-289,862	-200,000	0,035	0,163
-288,847	-22,453	-0,068	0,030
-287,832	-70,300	-0,075	0,020
-286,818	550,034	-0,063	0,110
-285,803	225,844	-0,044	-0,052
-284,789	-120,862	-0,056	-0,007
-283,774	658,316	-0,086	0,160
-282,759	511,268	-0,017	-0,030
-281,745	-135,778	0,082	0,007
-280,730	-200,000	-0,003	-0,059
-279,716	-200,000	0,008	-0,094
-278,701	800,000	0,027	-0,056
-277,686	-109,440	0,074	-0,011
-276,672	-29,445	0,058	-0,024
-275,657	-125,909	0,069	0,007
-274,643	114,087	-0,060	-0,053
-273,628	-200,000	0,002	-0,156
-272,613	385,451	0,052	-0,077
-271,599	512,445	0,079	0,133
-270,584	-84,841	-0,091	-0,020
-269,570	800,000	0,050	-0,147
-268,555	-70,542	0,198	-0,054
-267,540	800,000	-0,022	0,066
-266,526	244,795	0,013	0,016
-265,511	499,082	-0,066	-0,111
-264,497	-200,000	-0,009	-0,048
-263,482	-87,924	-0,062	-0,013
-262,467	16,651	0,131	-0,075
-261,453	164,406	-0,108	0,110
-260,438	-89,272	0,083	-0,018
-259,424	800,000	-0,014	0,036
-258,409	75,666	-0,096	-0,073
-257,395	-200,000	-0,009	0,077
-256,380	-104,939	0,017	-0,003
-255,365	143,836	0,081	-0,078
-254,351	-3,795	-0,018	0,009
-253,336	-125,839	0,091	0,010
-252,322	492,818	0,044	0,073
-251,307	-143,520	0,098	-0,007
-250,292	-200,000	-0,018	-0,101
-249,278	611,225	0,091	0,164
-248,263	241,791	-0,049	0,060
-247,249	800,000	-0,023	0,065
-246,234	-200,000	0,006	-0,037
-245,219	39,322	0,050	-0,033
-244,205	-59,577	0,054	-0,017
-243,190	-200,000	0,004	0,042
-242,176	216,312	0,062	0,071
-241,161	221,332	-0,073	0,085
-240,146	-200,000	0,006	0,065
-239,132	310,118	0,020	0,027
-238,117	-110,069	0,031	0,005
-237,103	419,420	0,047	-0,073
-236,088	800,000	0,018	0,052
-235,073	-200,000	0,002	0,180
-234,059	77,309	0,063	0,048
-233,044	377,533	0,037	-0,055
-232,030	19,798	0,019	-0,011
-231,015	-126,332	0,091	0,010
-230,000	78,324	-0,089	0,069
-228,986	302,077	0,061	0,082
-227,971	800,000	-0,026	0,074
-226,957	-200,000	0,030	0,204
-225,942	46,051	0,071	-0,047
-224,927	73,329	-0,055	-0,042
-223,913	186,424	-0,065	-0,069
-222,898	32,355	-0,093	0,058
-221,884	66,760	0,058	-0,043
-220,869	-74,422	0,155	0,040
-219,855	216,627	0,067	0,077
-218,840	800,000	-0,021	0,054
-217,825	98,926	-0,097	-0,081
-216,811	-200,000	0,006	0,038
-215,796	-29,385	-0,151	0,062
-214,782	-104,903	-0,107	0,017
-213,767	461,332	0,057	0,092
-212,752	130,642	0,095	0,087
-211,738	114,667	-0,064	0,056
-210,723	-118,383	0,033	-0,004
-209,709	-200,000	0,033	-0,126
-208,694	-51,053	0,108	-0,036
-207,679	-116,588	-0,236	0,031
-206,665	135,695	0,078	0,073
-205,650	31,007	-0,045	-0,027
-204,636	-200,000	-0,016	0,069
-203,621	-200,000	0,024	-0,100
-202,606	-8,461	0,064	-0,031
-201,592	-200,000	-0,011	-0,047
-200,577	-72,393	-0,082	0,022
-199,563	-154,391	0,058	-0,003
-198,548	-100,475	0,032	0,006
-197,533	-126,642	0,051	0,005
-196,519	-135,870	-0,090	0,008
-195,504	-155,755	-0,164	-0,007
-194,490	800,000	-0,063	0,150
-193,475	66,299	0,044	0,032
-192,460	-33,017	-0,067	-0,027
-191,446	-66,560	0,250	0,071
-190,431	192,372	0,108	0,117
-189,417	-200,000	-0,014	0,120
-188,402	202,741	-0,020	0,022
-187,387	-71,855	-0,098	-0,026
-186,373	147,762	-0,081	-0,079
-185,358	-150,139	-0,081	0,004
-184,344	133,751	0,057	-0,053
-183,329	-130,168	0,125	0,012
-182,315	175,641	-0,016	0,017
-181,300	-84,923	0,031	0,007
-180,285	12,561	0,075	-0,041
-179,271	188,933	-0,081	-0,088
-178,256	-1,827	-0,038	-0,019
-177,242	-129,337	0,025	0,002
-176,227	141,570	-0,045	0,043
-175,212	268,640	-0,071	0,090
-174,198	-200,000	-0,013	0,125
-173,183	-171,576	-0,127	0,003
-172,169	-200,000	0,015	-0,157
-171,154	-147,569	0,066	-0,004
-170,139	172,199	0,004	-0,004
-169,125	-93,903	-0,017	-0,003
-168,110	800,000	-0,019	-0,040
-167,096	800,000	0,022	-0,044
-166,081	800,000	-0,017	-0,051
-165,066	224,334	-0,074	-0,086
-164,052	-119,477	0,177	-0,022
-163,037	-200,000	-0,022	-0,091
-162,023	-200,000	0,004	-0,072
-161,008	-200,000	0,013	0,149
-159,993	-68,630	-0,068	0,019
-158,979	-200,000	-0,004	-0,044
-157,964	-127,488	-0,045	0,005
-156,950	54,761	0,088	0,061
-155,935	-200,000	-0,109	0,000
-154,920	-200,000	0,013	0,073
-153,906	800,000	-0,016	0,040
-152,891	47,118	0,057	0,038
-151,877	-200,000	0,003	-0,022
-150,862	426,605	-0,056	-0,088
-149,847	-4,487	0,206	0,102
-148,833	-18,259	-0,127	-0,057
-147,818	-200,000	0,006	-0,060
-146,804	800,000	-0,029	0,068
-145,789	638,170	0,074	0,136
-144,775	491,883	0,031	0,051
-143,760	-63,831	-0,113	-0,033
-142,745	-200,000	0,002	-0,060
-141,731	303,956	0,029	0,039
-140,716	-200,000	-0,003	-0,013
-139,702	146,765	-0,072	0,069
-138,687	-200,000	-0,010	0,102
-137,672	-200,000	0,003	-0,096
-136,658	371,723	-0,085	-0,124
-135,643	-67,436	-0,138	-0,039
-134,629	800,000	0,060	-0,149
-133,614	-28,461	0,028	-0,011
-132,599	-200,000	0,010	0,042
-131,585	800,000	0,055	0,141
-130,570	241,847	0,115	0,138
-129,556	-42,722	-0,065	-0,024
-128,541	437,530	0,030	-0,048
-127,526	-8,427	0,103	-0,049
-126,512	-81,841	-0,087	-0,020
-125,497	151,927	0,099	0,097
-124,483	50,444	-0,051	0,035
-123,468	-148,832	-0,042	-0,002
-122,453	-23,979	-0,073	0,031
-121,439	105,320	-0,057	-0,048
-120,424	224,045	0,096	-0,112
-119,410	645,173	-0,058	-0,106
