DTS Sentinel unit serial number:	SN410029Multiplexer serial number:	ORYXHardware model number:	OX2-SRSoftware version number:	ORYX F/W v4,00 Oryx Data Collector v3.7.2.0data status	okinstallation	B6 Nyhavnadifferential loss correction	single-endedforward channel	channel 2reverse channel	N/Adate	2023/12/10time	16:10:08forward acquisition time	300,00reverse acquisition time	0,00gamma	499,1914k internal	0,3123k external	0,3123temperature offset calibration	1,0000default loss term (dB/km)	0,3820temperature slope calibration	1,0000multiplexer offset coefficient	1,0000multiplexer slope coefficient	1,0000fibre end	0,00T internal ref (°C)	22,37T ext. ref 1 (°C)	6,08T ext. ref 2 (°C)	6,07length (m)	temperature (°C)	Stokes	anti-Stokes-744,400	234,239	-0,068	-0,083
-743,385	-57,328	-0,252	0,082
-742,371	583,855	-0,070	-0,129
-741,356	-4,830	-0,164	0,084
-740,342	-67,555	0,066	-0,019
-739,327	-1,223	-0,223	0,117
-738,312	-37,785	0,109	0,043
-737,298	800,000	-0,101	0,223
-736,283	682,954	0,060	0,116
-735,269	16,707	-0,240	0,141
-734,254	-200,000	-0,009	-0,038
-733,239	-81,724	-0,388	-0,094
-732,225	-119,316	0,145	-0,019
-731,210	236,826	0,038	0,047
-730,196	798,100	0,031	0,065
-729,181	-110,642	-0,056	0,009
-728,167	-200,000	0,032	-0,159
-727,152	455,731	-0,021	0,036
-726,137	-200,000	0,100	-0,000
-725,123	206,067	-0,094	-0,109
-724,108	-200,000	0,008	-0,128
-723,094	-128,859	-0,074	-0,008
-722,079	-24,478	-0,077	0,034
-721,064	-157,932	-0,083	-0,004
-720,050	-47,502	-0,184	-0,066
-719,035	-200,000	0,027	-0,097
-718,021	73,546	-0,137	-0,107
-717,006	-5,120	-0,077	-0,039
-715,991	-1,102	-0,130	-0,068
-714,977	-200,000	-0,014	-0,086
-713,962	195,790	-0,037	-0,042
-712,948	-200,000	0,037	0,150
-711,933	227,040	-0,019	-0,023
-710,918	45,557	-0,039	-0,026
-709,904	-200,000	0,000	-0,088
-708,889	-125,340	-0,037	-0,004
-707,875	28,217	-0,115	-0,072
-706,860	-87,956	-0,093	-0,021
-705,845	258,435	0,034	0,044
-704,831	-200,000	-0,006	-0,172
-703,816	567,383	0,081	0,146
-702,802	123,137	-0,059	-0,055
-701,787	-80,166	-0,080	-0,020
-700,772	1,894	0,069	-0,037
-699,758	241,479	-0,053	0,067
-698,743	-93,211	0,111	0,023
-697,729	24,570	-0,042	0,026
-696,714	-171,164	-0,163	-0,004
-695,699	-15,902	-0,026	0,012
-694,685	124,594	0,027	-0,025
-693,670	-200,000	-0,008	-0,140
-692,656	299,308	0,083	-0,114
-691,641	-29,586	-0,060	-0,025
-690,627	477,037	-0,021	0,036
-689,612	46,042	0,052	0,036
-688,597	-200,000	-0,007	0,035
-687,583	140,752	-0,036	0,035
-686,568	247,646	0,132	-0,166
-685,554	287,532	-0,091	-0,123
-684,539	209,058	-0,050	0,058
-683,524	-153,805	0,117	-0,006
-682,510	-3,858	-0,078	0,040
-681,495	-200,000	0,004	0,092
-680,481	-23,486	-0,124	0,055
-679,466	213,015	-0,021	-0,025
-678,451	-123,984	-0,186	-0,021
-677,437	143,996	0,075	-0,074
-676,422	-200,000	0,002	-0,064
-675,408	-200,000	0,027	-0,097
-674,393	-96,763	-0,078	-0,015
-673,378	137,270	0,007	0,007
-672,364	14,644	-0,070	-0,040
-671,349	-2,692	-0,118	-0,061
-670,335	-200,000	-0,015	-0,097
-669,320	800,000	0,026	-0,084
-668,305	144,933	-0,058	0,058
-667,291	-62,874	-0,119	0,036
-666,276	135,691	-0,057	-0,055
-665,262	68,442	-0,081	0,062
-664,247	-43,257	-0,050	0,019
-663,232	222,272	0,003	0,003
-662,218	255,760	-0,060	-0,076
-661,203	-60,696	-0,113	0,035
-660,189	-200,000	0,034	-0,134
-659,174	800,000	-0,022	-0,053
-658,159	-200,000	0,041	-0,169
-657,145	800,000	0,013	-0,034
-656,130	-13,626	-0,049	-0,024
-655,116	169,873	-0,017	-0,018
-654,101	183,937	0,063	-0,070
-653,086	-57,782	-0,087	-0,028
-652,072	-2,948	0,041	-0,021
-651,057	220,211	-0,116	0,139
-650,043	73,219	-0,086	0,067
-649,028	-200,000	-0,021	-0,086
-648,014	-160,446	0,130	-0,005
-646,999	800,000	-0,069	0,147
-645,984	-200,000	0,003	-0,064
-644,970	248,534	0,013	-0,017
-643,955	14,244	0,093	-0,054
-642,941	-200,000	0,020	-0,120
-641,926	-200,000	0,012	0,066
-640,911	-200,000	-0,003	-0,029
-639,897	-129,478	-0,116	0,012
-638,882	661,312	-0,071	0,137
-637,868	800,000	-0,021	-0,066
-636,853	-1,849	-0,082	0,043
-635,838	160,712	-0,073	-0,075
-634,824	-200,000	0,005	-0,085
-633,809	413,852	-0,075	-0,118
-632,795	-102,513	-0,053	0,009
-631,780	284,673	-0,091	0,122
-630,765	147,043	-0,057	0,057
-629,751	-144,677	-0,199	0,013
-628,736	-88,264	-0,121	0,027
-627,722	-84,042	0,057	-0,013
-626,707	579,696	-0,063	-0,114
-625,692	500,481	0,083	0,143
-624,678	-104,750	0,050	0,008
-623,663	800,000	-0,032	0,067
-622,649	-200,000	0,005	0,034
-621,634	631,034	0,036	-0,068
-620,619	-200,000	-0,037	-0,154
-619,605	800,000	-0,004	-0,009
-618,590	-58,603	0,106	-0,034
-617,576	800,000	0,019	0,051
-616,561	800,000	0,028	-0,080
-615,546	800,000	-0,021	0,068
-614,532	-119,395	-0,194	-0,025
-613,517	84,877	0,044	-0,036
-612,503	800,000	0,014	0,033
-611,488	386,492	0,046	-0,071
-610,474	-200,000	0,005	-0,030
-609,459	280,114	-0,026	-0,035
-608,444	800,000	0,015	0,031
-607,430	-66,414	0,085	0,025
-606,415	-200,000	0,046	-0,163
-605,401	240,837	-0,078	0,096
-604,386	88,331	-0,080	0,066
-603,371	-35,075	0,047	0,019
-602,357	320,652	-0,009	-0,012
-601,342	-200,000	-0,010	0,054
-600,328	-138,982	-0,144	0,011
-599,313	58,875	0,040	-0,029
-598,298	520,235	0,048	-0,083
-597,284	-10,228	-0,011	0,006
-596,269	653,001	0,055	0,105
-595,255	-125,062	-0,042	0,005
-594,240	-200,000	-0,030	-0,129
-593,225	-200,000	0,028	0,099
-592,211	-7,728	0,117	-0,059
-591,196	-128,469	-0,041	-0,004
-590,182	-200,000	0,009	0,188
-589,167	-200,000	0,018	0,077
-588,152	-150,372	-0,045	-0,002
-587,138	222,821	-0,061	0,073
-586,123	463,466	-0,062	0,103
-585,109	23,177	-0,108	-0,065
-584,094	-27,499	-0,085	-0,036
-583,079	800,000	0,033	-0,072
-582,065	353,785	-0,041	-0,061
-581,050	-200,000	-0,005	-0,047
-580,036	9,480	-0,081	0,046
-579,021	-137,696	0,088	-0,007
-578,006	-98,289	-0,088	-0,017
-576,992	279,727	-0,018	-0,023
-575,977	40,082	-0,054	-0,036
-574,963	-23,082	0,081	0,036
-573,948	-37,811	0,031	-0,012
-572,934	469,374	-0,015	0,025
-571,919	-28,512	0,050	-0,021
-570,904	114,662	-0,042	-0,038
-569,890	-200,000	-0,003	-0,051
-568,875	800,000	0,050	-0,111
-567,861	-200,000	0,002	0,082
-566,846	367,580	0,015	-0,023
-565,831	89,868	0,044	-0,037
-564,817	97,693	0,072	-0,061
-563,802	188,666	0,082	-0,091
-562,788	-135,567	0,071	-0,006
-561,773	94,384	-0,051	-0,043
-560,758	-164,344	0,036	-0,001
-559,744	800,000	0,011	-0,036
-558,729	425,155	-0,073	0,117
-557,715	363,197	-0,043	-0,064
-556,700	-49,340	-0,171	0,060
-555,685	-161,395	-0,040	0,001
-554,671	-200,000	-0,001	0,018
-553,656	193,932	-0,064	0,072
-552,642	-200,000	-0,053	0,257
-551,627	-200,000	0,009	0,127
-550,612	19,642	-0,102	0,061
-549,598	-200,000	0,004	-0,052
-548,583	-22,770	0,063	-0,028
-547,569	144,640	-0,090	-0,089
-546,554	-200,000	0,035	-0,115
-545,539	-191,571	0,032	-0,000
-544,525	800,000	0,037	-0,082
-543,510	-140,300	0,129	-0,010
-542,496	288,290	-0,109	-0,147
-541,481	638,468	-0,038	-0,073
-540,466	485,435	0,051	0,086
-539,452	-15,125	0,080	0,038
-538,437	82,728	0,019	0,015
-537,423	81,743	-0,060	0,048
-536,408	-200,000	0,012	0,101
-535,393	410,047	0,042	0,066
-534,379	-12,446	0,017	-0,008
-533,364	148,399	0,048	-0,048
-532,350	-200,000	-0,018	0,108
-531,335	65,148	0,100	0,074
-530,321	19,398	0,071	0,042
-529,306	575,057	-0,056	-0,101
-528,291	-53,219	-0,072	0,024
-527,277	-200,000	-0,016	-0,101
-526,262	77,856	0,027	-0,021
-525,248	-0,310	-0,158	0,083
-524,233	-200,000	-0,011	0,078
-523,218	468,496	-0,049	-0,081
-522,204	-200,000	-0,014	0,055
-521,189	-118,318	-0,080	-0,010
-520,175	-15,417	-0,213	-0,100
-519,160	-200,000	-0,020	0,104
-518,145	-105,575	0,101	0,017
-517,131	-200,000	-0,001	0,004
-516,116	800,000	0,054	0,154
-515,102	197,138	0,009	0,011
-514,087	97,269	0,043	0,037
-513,072	800,000	-0,082	0,173
-512,058	49,617	0,053	-0,037
-511,043	420,429	0,095	-0,150
-510,029	800,000	-0,035	0,071
-509,014	-83,408	-0,121	0,028
-507,999	-200,000	-0,014	0,131
-506,985	-70,051	0,031	0,009
-505,970	-105,909	-0,066	-0,011
-504,956	362,855	-0,041	0,061
-503,941	24,182	0,129	-0,078
-502,926	179,461	0,068	-0,073
-501,912	34,590	-0,058	-0,037
-500,897	-200,000	-0,148	-0,000
-499,883	509,137	0,031	0,053
-498,868	5,424	-0,076	-0,041
-497,853	101,460	-0,078	-0,067
-496,839	-176,118	0,069	-0,001
-495,824	-200,000	-0,000	-0,016
-494,810	-200,000	-0,025	0,096
-493,795	-33,346	0,058	0,024
-492,781	321,180	-0,044	-0,062
-491,766	-72,736	-0,012	-0,003
-490,751	793,073	-0,059	-0,121
-489,737	-3,529	0,060	-0,031
-488,722	-50,758	-0,022	0,007
-487,708	186,106	0,086	0,095
-486,693	61,558	0,059	0,043
-485,678	-45,302	-0,049	-0,018
-484,664	75,999	0,142	-0,111
-483,649	800,000	-0,022	0,061
-482,635	-151,529	0,120	0,006
-481,620	792,369	-0,047	0,095
-480,605	290,505	0,032	0,043
-479,591	74,235	-0,114	0,088
-478,576	-59,541	-0,015	-0,005
-477,562	-200,000	-0,016	-0,130
-476,547	-200,000	-0,018	-0,064
-475,532	800,000	-0,023	-0,060
-474,518	493,606	-0,018	0,030
-473,503	-200,000	0,005	0,020
-472,489	270,305	-0,051	-0,066
-471,474	-133,528	-0,084	0,008
-470,459	712,453	-0,031	-0,060
-469,445	141,884	-0,177	-0,173
-468,430	-200,000	0,012	-0,075
-467,416	-124,148	0,072	0,008
-466,401	176,150	0,102	0,110
-465,386	529,619	-0,041	-0,072
-464,372	800,000	-0,018	-0,039
-463,357	-200,000	-0,021	0,113
-462,343	-200,000	0,010	-0,077
-461,328	445,312	0,050	0,082
-460,313	87,777	-0,035	0,029
-459,299	-110,193	0,143	0,022
-458,284	-200,000	0,003	0,019
-457,270	-141,400	0,107	-0,008
-456,255	53,941	-0,066	0,047
-455,241	-200,000	-0,011	-0,053
-454,226	69,862	0,103	-0,078
-453,211	-75,898	-0,051	-0,013
-452,197	68,204	0,039	-0,030
-451,182	-105,318	-0,110	-0,018
-450,168	-68,431	-0,064	-0,018
-449,153	800,000	0,018	-0,045
-448,138	-200,000	-0,009	-0,124
-447,124	-200,000	0,002	-0,143
-446,109	622,787	-0,025	0,047
-445,095	-24,389	0,091	0,040
-444,080	-115,958	-0,122	-0,017
-443,065	37,698	-0,029	0,019
-442,051	272,602	0,061	-0,080
-441,036	-200,000	-0,011	-0,161
-440,022	-200,000	-0,020	-0,111
-439,007	493,563	0,065	0,111
-437,992	181,265	0,075	0,081
-436,978	-200,000	-0,017	-0,207
-435,963	-39,852	-0,068	-0,026
-434,949	-200,000	0,010	-0,079
-433,934	-2,061	-0,104	0,054
-432,919	-200,000	-0,001	-0,004
-431,905	88,720	-0,060	-0,049
-430,890	163,075	0,052	-0,054
-429,876	-200,000	0,009	0,109
-428,861	800,000	0,012	0,029
-427,846	-121,688	0,049	-0,006
-426,832	-200,000	-0,021	-0,128
-425,817	84,496	-0,054	0,044
-424,803	37,685	-0,013	0,008
-423,788	800,000	0,063	-0,133
-422,773	16,121	0,114	-0,066
-421,759	800,000	-0,049	-0,112
-420,744	-200,000	0,002	0,033
-419,730	-54,622	0,062	0,021
-418,715	13,758	-0,069	0,039
-417,701	-200,000	-0,011	-0,124
-416,686	94,733	-0,038	0,032
-415,671	-102,008	0,090	0,016
-414,657	-200,000	0,041	0,145
-413,642	542,435	-0,040	0,070
-412,628	-200,000	0,005	-0,065
-411,613	611,052	0,062	0,114
-410,598	4,430	-0,019	-0,010
-409,584	-5,222	-0,108	0,054
-408,569	262,117	0,106	0,135
-407,555	-37,239	-0,103	0,040
-406,540	-200,000	-0,036	0,132
-405,525	726,061	0,016	0,032
-404,511	-94,579	-0,120	-0,024
-403,496	-35,610	0,090	0,036
-402,482	180,358	-0,143	-0,154
-401,467	-200,000	0,008	0,123
-400,452	-9,910	0,005	0,002
-399,438	-23,149	-0,051	0,022
-398,423	82,350	-0,048	-0,038
-397,409	800,000	0,052	-0,115
-396,394	800,000	-0,031	-0,074
-395,379	-163,627	-0,105	-0,004
-394,365	-108,156	-0,121	0,019
-393,350	800,000	0,055	0,121
-392,336	442,796	0,029	0,047
-391,321	5,844	0,072	-0,039
-390,306	469,072	-0,095	-0,158
-389,292	-126,071	-0,131	-0,014
-388,277	-200,000	-0,018	0,122
-387,263	346,916	0,073	0,106
-386,248	-10,323	0,084	0,041
-385,233	-200,000	-0,028	0,236
-384,219	65,040	-0,051	-0,038
-383,204	-144,231	-0,160	-0,011
-382,190	77,283	-0,105	-0,082
-381,175	-200,000	-0,014	-0,054
-380,160	28,650	0,014	0,009
-379,146	800,000	0,027	0,073
-378,131	800,000	-0,015	-0,045
-377,117	-114,962	0,076	0,010
-376,102	-13,101	-0,056	0,027
-375,088	173,379	-0,058	-0,062
-374,073	-68,538	0,113	-0,032
-373,058	-200,000	0,002	0,081
-372,044	800,000	-0,025	-0,063
-371,029	-161,799	-0,085	0,003
-370,015	599,414	0,058	0,106
-369,000	-155,215	0,129	-0,006
-367,985	496,349	-0,035	0,059
-366,971	287,359	0,079	0,105
-365,956	-79,275	0,026	-0,006
-364,942	-137,146	0,035	-0,003
-363,927	544,730	0,111	0,196
-362,912	800,000	0,031	0,098
-361,898	-28,429	0,029	-0,012
-360,883	48,803	-0,072	0,050
-359,869	32,668	0,038	-0,024
-358,854	-200,000	-0,010	0,056
-357,839	165,291	0,050	0,052
-356,825	-200,000	-0,009	0,061
-355,810	-166,789	0,109	-0,003
-354,796	800,000	-0,077	-0,161
-353,781	-105,679	-0,044	0,007
-352,766	-111,892	0,127	-0,019
-351,752	-92,935	0,112	-0,023
-350,737	-95,020	0,098	0,019
-349,723	-53,710	0,068	0,023
-348,708	543,714	-0,046	0,081
-347,693	-200,000	0,001	-0,048
-346,679	-200,000	-0,004	-0,067
-345,664	53,924	0,054	-0,038
-344,650	374,415	0,067	0,101
-343,635	65,993	0,068	-0,050
-342,620	80,338	0,039	0,031
-341,606	800,000	0,043	0,101
-340,591	122,224	0,025	-0,023
-339,577	-200,000	0,040	-0,153
-338,562	-200,000	0,016	-0,086
-337,548	45,997	-0,092	0,063
-336,533	360,631	0,079	-0,117
-335,518	86,784	0,067	-0,054
-334,504	800,000	-0,017	0,045
-333,489	800,000	0,014	-0,041
-332,475	354,117	0,045	0,066
-331,460	-200,000	-0,009	-0,139
-330,445	75,645	-0,110	0,085
-329,431	258,937	-0,029	0,037
-328,416	47,963	0,089	0,061
-327,402	217,691	-0,073	-0,085
-326,387	-200,000	-0,021	0,122
-325,372	512,318	-0,052	-0,088
-324,358	14,773	0,086	0,049
-323,343	-12,949	0,042	0,020
-322,329	-84,465	0,008	-0,002
-321,314	-200,000	-0,007	-0,161
-320,299	-109,593	0,109	0,017
-319,285	195,141	0,038	-0,042
-318,270	-200,000	-0,022	-0,086
-317,256	-125,063	-0,183	0,020
-316,241	135,294	0,039	0,037
-315,226	-9,895	0,058	-0,028
-314,212	800,000	0,035	0,110
-313,197	800,000	0,076	0,162
-312,183	-200,000	-0,005	0,044
-311,168	127,152	-0,054	0,050
-310,153	97,791	0,052	-0,044
-309,139	-26,749	-0,107	-0,046
-308,124	-200,000	0,002	-0,042
-307,110	-200,000	0,012	0,097
-306,095	88,558	0,028	0,023
-305,080	116,222	0,088	-0,079
-304,066	664,923	-0,029	0,055
-303,051	-181,155	-0,113	0,002
-302,037	1,381	-0,044	0,023
-301,022	-200,000	0,006	-0,071
-300,008	-126,914	0,181	-0,019
-298,993	-113,764	-0,110	0,016
-297,978	-200,000	0,018	0,066
-296,964	17,755	-0,126	-0,073
-295,949	4,163	0,042	-0,022
-294,935	419,635	0,094	0,148
-293,920	-200,000	-0,013	-0,113
-292,905	800,000	0,014	0,042
-291,891	-16,223	0,121	0,056
-290,876	-21,333	0,030	0,013
-289,862	-200,000	-0,006	0,046
-288,847	-12,626	0,061	0,029
-287,832	-200,000	-0,038	-0,141
-286,818	800,000	0,042	0,125
-285,803	-200,000	0,002	0,119
-284,789	254,810	0,099	-0,125
-283,774	58,553	0,022	0,016
-282,759	53,674	-0,069	-0,048
-281,745	-93,336	0,093	0,019
-280,730	596,540	-0,023	-0,043
-279,716	-60,491	0,154	0,048
-278,701	-185,383	0,129	-0,001
-277,686	163,368	0,055	0,057
-276,672	-200,000	-0,005	-0,054
-275,657	-200,000	-0,004	0,066
-274,643	-200,000	-0,009	-0,096
-273,628	2,011	-0,042	-0,022
-272,613	3,486	-0,046	-0,025
-271,599	800,000	0,066	-0,146
-270,584	230,234	0,087	0,105
-269,570	294,956	0,055	0,074
-268,555	800,000	0,046	0,114
-267,540	-163,673	-0,102	0,003
-266,526	-200,000	0,027	-0,179
-265,511	-130,678	-0,214	0,021
-264,497	800,000	-0,007	0,023
-263,482	-200,000	-0,001	-0,096
-262,467	-79,998	0,140	-0,034
-261,453	-200,000	0,043	-0,147
-260,438	-139,941	-0,179	0,014
-259,424	-92,006	0,115	-0,024
-258,409	262,188	0,019	0,024
-257,395	156,830	0,043	-0,043
-256,380	56,525	-0,076	0,054
-255,365	785,165	0,027	0,053
-254,351	-50,489	0,025	0,009
-253,336	-103,629	-0,102	-0,017
-252,322	-200,000	-0,017	0,133
-251,307	800,000	0,016	0,037
-250,292	-200,000	0,035	-0,136
-249,278	-200,000	0,008	-0,040
-248,263	-54,212	-0,012	0,004
-247,249	387,676	0,066	-0,100
-246,234	800,000	0,017	-0,039
-245,219	33,525	-0,033	0,021
-244,205	-200,000	0,008	0,066
-243,190	-150,628	0,073	0,004
-242,176	-59,073	0,071	0,022
-241,161	-114,350	0,057	0,008
-240,146	-200,000	-0,011	-0,119
-239,132	186,483	-0,053	0,057
-238,117	-44,265	0,077	0,028
-237,103	-40,830	-0,126	-0,048
-236,088	176,567	-0,089	-0,094
-235,073	-165,319	0,054	0,002
-234,059	131,815	0,055	-0,051
-233,044	800,000	-0,027	-0,081
-232,030	20,023	0,149	0,088
-231,015	277,004	0,014	-0,018
-230,000	800,000	0,059	-0,126
-228,986	45,339	-0,038	-0,026
-227,971	800,000	0,040	0,110
-226,957	344,548	0,046	0,066
-225,942	59,884	-0,066	-0,047
-224,927	83,793	0,042	-0,034
-223,913	-161,233	-0,098	0,004
-222,898	171,380	-0,036	0,038
-221,884	800,000	0,070	-0,144
-220,869	-113,226	0,132	-0,019
-219,855	800,000	-0,054	0,116
-218,840	-96,789	0,158	-0,030
-217,825	53,950	-0,078	0,054
-216,811	138,880	-0,074	-0,071
-215,796	-55,862	0,200	0,065
-214,782	75,857	-0,102	-0,078
-213,767	163,271	0,075	-0,078
-212,752	153,744	0,047	-0,047
-211,738	-68,718	0,135	-0,038
-210,723	77,054	-0,026	0,020
-209,709	-109,522	0,023	-0,003
-208,694	-20,462	-0,113	-0,051
-207,679	35,781	-0,070	0,045
-206,665	232,328	0,101	0,122
-205,650	2,262	0,145	-0,076
-204,636	60,428	0,090	-0,065
-203,621	292,050	-0,124	0,165
-202,606	18,040	-0,044	0,025
-201,592	401,528	0,036	0,055
-200,577	127,511	0,082	0,076
-199,563	800,000	0,004	0,013
-198,548	-200,000	0,006	-0,101
-197,533	-84,251	-0,123	0,028
-196,519	800,000	-0,074	0,151
-195,504	800,000	0,005	0,011
-194,490	15,822	0,074	-0,042
-193,475	800,000	0,040	-0,107
-192,460	-200,000	-0,004	-0,039
-191,446	-200,000	-0,020	0,079
-190,431	-86,291	-0,080	-0,018
-189,417	-80,266	-0,117	0,028
-188,402	-200,000	0,013	0,145
-187,387	231,402	-0,083	-0,099
-186,373	-200,000	-0,005	-0,040
-185,358	69,592	-0,061	-0,046
-184,344	-200,000	-0,026	0,092
-183,329	-26,995	-0,037	-0,016
-182,315	-200,000	0,098	0,000
-181,300	-200,000	-0,008	0,199
-180,285	95,037	0,032	-0,027
-179,271	-200,000	-0,006	-0,073
-178,256	-74,385	0,019	-0,005
-177,242	1,152	-0,087	-0,046
-176,227	-200,000	-0,011	0,071
-175,212	-200,000	0,005	0,035
-174,198	39,608	-0,067	-0,044
-173,183	214,121	-0,049	0,056
-172,169	-39,137	0,061	-0,023
-171,154	28,538	0,061	-0,037
-170,139	675,462	-0,113	0,215
-169,125	-111,126	-0,029	-0,004
-168,110	414,372	-0,041	0,064
-167,096	23,759	-0,080	-0,048
-166,081	800,000	-0,037	-0,100
-165,066	-200,000	-0,018	0,153
-164,052	409,548	-0,031	-0,048
-163,037	-62,741	0,067	-0,020
-162,023	-106,876	0,101	0,016
-161,008	-200,000	-0,007	-0,022
-159,993	-102,873	0,120	-0,021
-158,979	800,000	0,011	0,034
-157,964	800,000	0,004	-0,009
-156,950	800,000	0,034	-0,074
-155,935	-200,000	-0,027	-0,093
-154,920	-37,559	0,066	0,026
-153,906	351,788	-0,030	0,044
-152,891	97,048	0,046	0,038
-151,877	189,613	-0,017	0,018
-150,862	224,093	0,105	-0,123
-149,847	-200,000	0,045	0,161
-148,833	-124,581	0,113	0,013
-147,818	-136,812	0,119	0,010
-146,804	800,000	0,044	0,099
-145,789	214,142	-0,064	0,074
-144,775	-115,356	0,170	0,023
-143,760	33,681	0,021	0,013
-142,745	200,117	0,099	0,111
-141,731	800,000	-0,027	-0,061
-140,716	800,000	-0,005	0,012
-139,702	800,000	0,044	0,101
-138,687	-200,000	0,023	0,099
-137,672	281,838	-0,073	0,095
-136,658	-200,000	0,041	0,167
-135,643	164,753	0,063	0,064
-134,629	-200,000	0,024	-0,082
-133,614	-200,000	0,035	-0,151
-132,599	-200,000	0,003	0,083
-131,585	259,051	0,036	0,045
-130,570	165,145	-0,053	-0,054
-129,556	63,282	-0,175	0,128
-128,541	19,833	-0,117	0,068
-127,526	-200,000	-0,029	0,134
-126,512	162,410	0,080	0,082
-125,497	-66,168	-0,093	-0,027
-124,483	-0,679	-0,027	-0,014
-123,468	-200,000	0,005	0,110
-122,453	-114,112	-0,145	0,020
-121,439	-200,000	0,005	-0,055
-120,424	-84,253	0,119	-0,027
-119,410	-200,000	-0,009	-0,071
