DTS Sentinel unit serial number:	SN410029Multiplexer serial number:	ORYXHardware model number:	OX2-SRSoftware version number:	ORYX F/W v4,00 Oryx Data Collector v3.7.2.0data status	okinstallation	B6 Nyhavnadifferential loss correction	single-endedforward channel	channel 2reverse channel	N/Adate	2023/12/07time	23:00:08forward acquisition time	300,00reverse acquisition time	0,00gamma	499,1914k internal	0,3165k external	0,3165temperature offset calibration	1,0000default loss term (dB/km)	0,3820temperature slope calibration	1,0000multiplexer offset coefficient	1,0000multiplexer slope coefficient	1,0000fibre end	0,00T internal ref (°C)	13,52T ext. ref 1 (°C)	-3,40T ext. ref 2 (°C)	-3,39length (m)	temperature (°C)	Stokes	anti-Stokes-744,400	-100,749	0,050	0,009
-743,385	-117,635	-0,375	-0,049
-742,371	157,683	0,146	0,149
-741,356	-146,876	-0,207	-0,013
-740,342	-84,984	0,174	0,040
-739,327	65,954	-0,309	-0,230
-738,312	-78,049	0,096	0,024
-737,298	-46,238	-0,390	-0,140
-736,283	468,798	0,032	-0,054
-735,269	-74,303	-0,337	0,089
-734,254	88,917	0,172	0,140
-733,239	-133,167	-0,619	-0,057
-732,225	-61,484	0,135	-0,041
-731,210	-200,000	-0,012	0,078
-730,196	-141,325	0,181	0,013
-729,181	-200,000	0,004	-0,166
-728,167	-200,000	-0,005	-0,083
-727,152	149,424	-0,124	-0,124
-726,137	69,578	-0,084	0,064
-725,123	4,903	-0,157	0,085
-724,108	177,828	0,047	0,050
-723,094	-200,000	0,027	-0,138
-722,079	-167,395	-0,185	0,005
-721,064	-200,000	0,001	-0,093
-720,050	-9,581	-0,207	-0,101
-719,035	148,124	-0,039	0,039
-718,021	-200,000	-0,025	-0,148
-717,006	161,532	-0,076	-0,079
-715,991	445,740	-0,095	-0,154
-714,977	-54,471	-0,139	0,046
-713,962	-200,000	-0,032	0,128
-712,948	-145,167	0,015	0,001
-711,933	13,657	-0,042	0,024
-710,918	-149,015	-0,056	0,003
-709,904	-112,533	-0,047	0,007
-708,889	-52,880	-0,035	-0,012
-707,875	-200,000	-0,014	-0,114
-706,860	252,455	-0,029	-0,036
-705,845	-91,350	0,036	-0,007
-704,831	-80,378	0,084	0,021
-703,816	47,668	0,036	-0,024
-702,802	-171,287	-0,102	-0,002
-701,787	154,191	-0,072	-0,073
-700,772	-200,000	-0,025	-0,091
-699,758	-166,443	-0,145	-0,004
-698,743	134,127	-0,071	0,068
-697,729	66,477	0,149	0,111
-696,714	-200,000	-0,004	0,049
-695,699	190,129	-0,042	0,047
-694,685	800,000	-0,043	-0,132
-693,670	41,922	0,088	-0,059
-692,656	-200,000	-0,007	0,107
-691,641	114,753	0,014	-0,012
-690,627	41,939	-0,043	-0,029
-689,612	-200,000	0,012	0,059
-688,597	800,000	-0,058	0,150
-687,583	-121,634	-0,142	-0,017
-686,568	-7,532	-0,079	0,039
-685,554	211,279	-0,013	0,016
-684,539	67,817	0,017	0,012
-683,524	26,745	-0,050	0,030
-682,510	63,592	0,066	-0,049
-681,495	-7,554	-0,060	0,030
-680,481	277,214	-0,068	0,089
-679,466	74,266	-0,115	-0,088
-678,451	-192,142	-0,100	0,001
-677,437	-200,000	0,005	0,057
-676,422	-200,000	-0,001	-0,043
-675,408	-77,676	0,121	0,030
-674,393	793,336	-0,070	-0,141
-673,378	123,025	-0,152	-0,140
-672,364	358,019	-0,036	0,053
-671,349	-200,000	-0,033	-0,138
-670,335	800,000	-0,028	-0,066
-669,320	-200,000	-0,006	-0,103
-668,305	-119,358	-0,017	-0,002
-667,291	246,451	-0,054	-0,066
-666,276	800,000	-0,045	-0,129
-665,262	11,473	-0,118	-0,066
-664,247	800,000	-0,027	-0,083
-663,232	407,928	-0,072	-0,112
-662,218	241,465	-0,062	-0,076
-661,203	1,025	-0,043	-0,022
-660,189	-54,431	0,155	-0,051
-659,174	800,000	0,022	-0,056
-658,159	100,026	-0,070	-0,059
-657,145	-200,000	0,006	0,028
-656,130	-42,066	-0,137	0,051
-655,116	-200,000	-0,016	-0,078
-654,101	-200,000	0,001	0,120
-653,086	-100,408	-0,075	0,013
-652,072	-26,945	-0,077	0,033
-651,057	-200,000	0,010	-0,034
-650,043	-200,000	0,001	0,034
-649,028	800,000	-0,033	0,070
-648,014	-200,000	-0,009	0,059
-646,999	-200,000	-0,019	0,179
-645,984	433,817	-0,035	-0,056
-644,970	-200,000	-0,019	0,119
-643,955	800,000	-0,062	-0,154
-642,941	800,000	0,033	-0,070
-641,926	800,000	0,015	0,045
-640,911	498,506	0,029	0,049
-639,897	-109,997	0,061	0,009
-638,882	-58,823	0,066	0,021
-637,868	-200,000	0,003	0,026
-636,853	-200,000	0,027	-0,200
-635,838	79,851	-0,123	-0,096
-634,824	-111,146	0,081	0,012
-633,809	-74,447	0,052	0,014
-632,795	-200,000	0,017	-0,123
-631,780	-200,000	0,001	-0,029
-630,765	-22,816	-0,137	-0,060
-629,751	-200,000	-0,034	-0,130
-628,736	21,766	-0,063	-0,037
-627,722	-200,000	-0,008	-0,046
-626,707	-200,000	0,020	0,076
-625,692	40,088	0,088	0,058
-624,678	-68,065	0,073	0,021
-623,663	800,000	0,083	0,178
-622,649	565,106	0,035	-0,062
-621,634	346,147	0,019	0,028
-620,619	357,104	-0,018	0,026
-619,605	78,342	0,132	0,103
-618,590	25,014	-0,116	0,070
-617,576	800,000	0,028	-0,061
-616,561	-200,000	0,018	0,073
-615,546	-64,889	-0,090	0,026
-614,532	596,751	0,104	-0,189
-613,517	800,000	0,017	-0,042
-612,503	800,000	-0,031	-0,079
-611,488	800,000	0,025	-0,056
-610,474	-200,000	-0,007	0,110
-609,459	-68,949	0,130	0,037
-608,444	800,000	-0,027	-0,069
-607,430	-29,553	-0,093	-0,039
-606,415	727,090	-0,021	-0,040
-605,401	-200,000	0,008	0,079
-604,386	800,000	0,047	-0,109
-603,371	97,911	-0,020	0,017
-602,357	800,000	0,024	-0,055
-601,342	77,173	-0,086	0,067
-600,328	-200,000	0,018	0,068
-599,313	-200,000	-0,007	-0,070
-598,298	-200,000	0,053	-0,216
-597,284	37,418	0,098	0,063
-596,269	800,000	0,050	-0,119
-595,255	800,000	-0,038	0,090
-594,240	800,000	-0,025	-0,053
-593,225	346,457	0,063	0,091
-592,211	-200,000	0,007	-0,073
-591,196	-69,770	-0,063	0,018
-590,182	9,868	0,108	0,060
-589,167	64,632	-0,075	0,055
-588,152	142,606	-0,074	-0,072
-587,138	-200,000	-0,005	-0,148
-586,123	104,794	0,028	0,024
-585,109	436,805	-0,018	0,029
-584,094	-127,859	0,104	-0,011
-583,079	42,679	0,061	0,041
-582,065	-9,465	0,062	0,030
-581,050	-98,422	-0,110	-0,020
-580,036	-200,000	0,020	0,067
-579,021	-91,748	-0,165	-0,034
-578,006	337,621	0,027	-0,038
-576,992	-4,442	0,074	0,037
-575,977	-200,000	-0,039	0,211
-574,963	98,267	0,042	-0,035
-573,948	98,315	-0,053	-0,044
-572,934	202,314	-0,097	-0,110
-571,919	126,545	-0,034	-0,031
-570,904	-2,521	-0,044	-0,023
-569,890	-200,000	0,002	0,039
-568,875	66,854	-0,098	0,073
-567,861	4,686	0,071	-0,038
-566,846	800,000	0,027	0,087
-565,831	548,644	-0,028	-0,050
-564,817	800,000	-0,023	0,057
-563,802	198,788	-0,098	0,109
-562,788	289,712	0,040	-0,053
-561,773	528,421	0,082	-0,142
-560,758	408,419	-0,077	0,120
-559,744	-200,000	-0,017	0,073
-558,729	-22,029	0,100	0,044
-557,715	-52,989	-0,135	0,045
-556,700	333,807	0,015	-0,021
-555,685	-29,513	0,136	-0,056
-554,671	4,376	0,088	-0,047
-553,656	-200,000	-0,018	-0,090
-552,642	800,000	-0,046	0,133
-551,627	761,889	-0,016	0,031
-550,612	-200,000	0,006	-0,087
-549,598	293,422	-0,106	-0,142
-548,583	-200,000	-0,019	-0,089
-547,569	-46,233	0,099	0,035
-546,554	800,000	0,020	0,055
-545,539	18,442	0,048	-0,028
-544,525	-8,815	0,075	0,037
-543,510	200,848	0,024	-0,027
-542,496	-141,876	-0,118	0,008
-541,481	-3,804	-0,152	-0,077
-540,466	97,803	-0,017	-0,014
-539,452	-200,000	-0,032	-0,156
-538,437	74,751	0,072	-0,055
-537,423	-97,163	-0,096	0,018
-536,408	1,969	-0,068	0,036
-535,393	-82,673	-0,121	0,028
-534,379	247,598	-0,082	-0,102
-533,364	-200,000	0,018	-0,083
-532,350	-200,000	0,006	-0,074
-531,335	-61,983	-0,100	-0,030
-530,321	800,000	0,074	0,198
-529,306	-96,217	0,140	0,027
-528,291	-200,000	0,000	-0,069
-527,277	-200,000	-0,002	-0,099
-526,262	80,564	-0,123	-0,097
-525,248	-200,000	-0,006	-0,104
-524,233	416,553	0,030	0,047
-523,218	800,000	0,026	-0,075
-522,204	-200,000	0,043	-0,189
-521,189	169,777	-0,029	0,030
-520,175	-200,000	-0,004	-0,062
-519,160	-27,511	0,071	0,030
-518,145	-200,000	-0,008	-0,049
-517,131	-200,000	-0,010	0,210
-516,116	-50,663	0,040	0,014
-515,102	6,911	-0,081	-0,044
-514,087	246,923	-0,091	-0,112
-513,072	148,091	0,031	-0,030
-512,058	-144,040	-0,045	0,003
-511,043	-148,470	0,049	0,003
-510,029	-112,292	0,037	-0,005
-509,014	178,308	-0,067	0,072
-507,999	-59,489	-0,078	0,024
-506,985	-4,178	0,052	0,026
-505,970	255,867	-0,021	-0,027
-504,956	-127,000	-0,115	0,012
-503,941	123,707	0,041	-0,037
-502,926	-172,398	0,150	0,003
-501,912	-200,000	0,005	0,025
-500,897	132,564	0,059	0,055
-499,883	-200,000	0,038	0,125
-498,868	534,642	-0,062	-0,108
-497,853	-108,261	-0,070	-0,011
-496,839	-200,000	-0,004	-0,031
-495,824	57,123	0,066	0,047
-494,810	-200,000	0,027	0,145
-493,795	-200,000	-0,007	0,114
-492,781	-163,003	0,005	0,000
-491,766	-45,762	0,056	-0,020
-490,751	800,000	-0,064	-0,163
-489,737	531,921	-0,054	-0,094
-488,722	-200,000	-0,002	0,096
-487,708	-200,000	-0,008	0,036
-486,693	324,229	-0,114	0,159
-485,678	53,175	0,075	0,052
-484,664	800,000	-0,032	-0,065
-483,649	-200,000	0,017	0,097
-482,635	-37,637	-0,171	-0,066
-481,620	-200,000	0,003	-0,023
-480,605	-57,199	0,028	0,009
-479,591	-200,000	0,014	0,083
-478,576	88,620	0,094	0,076
-477,562	795,985	0,012	0,023
-476,547	523,695	-0,050	0,086
-475,532	-200,000	-0,016	0,103
-474,518	-103,018	0,127	0,022
-473,503	-57,109	-0,055	-0,017
-472,489	-132,842	-0,021	0,002
-471,474	-139,951	-0,065	-0,005
-470,459	13,701	0,098	0,055
-469,445	81,012	-0,079	-0,062
-468,430	457,936	0,013	-0,021
-467,416	686,017	-0,030	0,057
-466,401	77,447	0,125	0,097
-465,386	578,293	0,017	0,031
-464,372	-131,825	-0,050	0,005
-463,357	-155,768	0,146	-0,007
-462,343	491,851	-0,092	-0,154
-461,328	-200,000	-0,002	-0,100
-460,313	62,115	0,096	0,070
-459,299	482,919	0,075	0,124
-458,284	-87,336	-0,079	0,017
-457,270	146,099	-0,091	0,089
-456,255	45,825	-0,042	-0,028
-455,241	157,274	-0,100	-0,101
-454,226	231,459	-0,138	-0,165
-453,211	800,000	0,057	-0,138
-452,197	-200,000	-0,009	0,089
-451,182	7,941	-0,025	-0,014
-450,168	-60,864	-0,045	0,014
-449,153	-189,084	-0,098	-0,001
-448,138	-19,706	0,132	0,059
-447,124	800,000	0,001	-0,003
-446,109	199,785	0,058	-0,065
-445,095	800,000	-0,011	0,029
-444,080	-200,000	0,009	0,092
-443,065	-27,777	0,076	-0,032
-442,051	-61,950	0,112	0,034
-441,036	800,000	-0,037	-0,103
-440,022	59,020	-0,151	-0,108
-439,007	-38,074	0,026	-0,010
-437,992	360,311	-0,014	0,021
-436,978	-200,000	0,001	-0,020
-435,963	-200,000	-0,001	-0,090
-434,949	-32,553	0,056	-0,023
-433,934	-200,000	-0,008	-0,029
-432,919	-200,000	0,018	-0,097
-431,905	662,580	-0,049	0,092
-430,890	-19,769	0,123	0,055
-429,876	122,108	0,075	-0,068
-428,861	-200,000	-0,009	0,142
-427,846	-119,707	0,040	-0,005
-426,832	-172,584	0,001	0,000
-425,817	-200,000	-0,005	-0,025
-424,803	290,297	-0,006	0,008
-423,788	2,170	0,065	0,034
-422,773	4,657	0,122	0,065
-421,759	-120,266	0,082	0,010
-420,744	-200,000	-0,052	-0,182
-419,730	-156,340	-0,081	-0,004
-418,715	136,194	-0,075	0,072
-417,701	303,285	0,052	-0,069
-416,686	800,000	-0,048	-0,114
-415,671	-200,000	-0,020	0,104
-414,657	800,000	-0,046	0,115
-413,642	-106,638	0,129	0,021
-412,628	429,943	-0,041	-0,065
-411,613	-200,000	-0,014	0,053
-410,598	-80,162	-0,007	-0,002
-409,584	146,045	0,062	-0,060
-408,569	800,000	0,013	-0,026
-407,555	-125,138	0,118	-0,013
-406,540	-33,042	-0,056	0,023
-405,525	282,204	0,037	0,049
-404,511	196,376	0,076	-0,084
-403,496	190,552	0,052	-0,057
-402,482	-200,000	-0,009	-0,044
-401,467	-200,000	-0,021	0,217
-400,452	551,540	0,034	0,060
-399,438	290,771	0,025	0,033
-398,423	-200,000	0,005	-0,023
-397,409	93,350	-0,091	0,075
-396,394	-158,586	-0,041	-0,002
-395,379	-43,516	-0,082	0,030
-394,365	-191,903	0,136	-0,001
-393,350	-200,000	0,014	0,060
-392,336	411,153	-0,004	0,006
-391,321	144,697	-0,041	-0,040
-390,306	484,851	-0,058	-0,096
-389,292	-200,000	0,001	-0,005
-388,277	296,163	-0,043	-0,057
-387,263	-107,924	0,024	-0,004
-386,248	214,020	0,046	-0,053
-385,233	-200,000	0,012	0,069
-384,219	-133,350	-0,056	-0,005
-383,204	506,419	0,041	-0,069
-382,190	-200,000	-0,035	-0,117
-381,175	-2,055	-0,076	0,038
-380,160	800,000	-0,039	0,104
-379,146	91,418	-0,048	0,039
-378,131	122,254	0,019	0,017
-377,117	-200,000	0,026	-0,126
-376,102	-29,173	-0,104	0,043
-375,088	-71,307	0,069	-0,019
-374,073	286,047	-0,032	0,042
-373,058	58,225	0,040	-0,028
-372,044	-200,000	-0,004	0,066
-371,029	91,122	0,062	-0,050
-370,015	71,484	-0,139	-0,105
-369,000	-200,000	-0,010	-0,111
-367,985	518,907	0,045	-0,077
-366,971	-57,888	0,040	-0,013
-365,956	236,020	-0,016	-0,019
-364,942	-28,381	0,064	-0,027
-363,927	299,934	0,094	0,126
-362,912	-200,000	-0,000	0,054
-361,898	-200,000	-0,002	-0,021
-360,883	-200,000	-0,004	-0,049
-359,869	-48,522	-0,048	-0,017
-358,854	185,876	-0,039	0,042
-357,839	412,331	-0,057	0,088
-356,825	-9,208	-0,028	-0,013
-355,810	-86,367	-0,059	-0,013
-354,796	-101,411	-0,075	-0,013
-353,781	-71,563	-0,095	0,025
-352,766	300,618	0,087	-0,116
-351,752	-200,000	0,002	0,085
-350,737	-62,212	-0,016	0,005
-349,723	395,877	-0,082	0,124
-348,708	-25,873	0,044	0,019
-347,693	243,243	-0,133	-0,161
-346,679	-72,696	0,043	-0,011
-345,664	36,351	0,073	0,047
-344,650	389,665	0,026	0,040
-343,635	-123,961	0,097	-0,011
-342,620	40,707	0,042	-0,028
-341,606	-200,000	-0,045	0,000
-340,591	-96,533	-0,113	0,021
-339,577	-200,000	-0,003	0,045
-338,562	-200,000	-0,017	-0,074
-337,548	-106,998	-0,095	0,015
-336,533	-200,000	0,011	-0,080
-335,518	-53,229	0,056	-0,019
-334,504	-25,010	0,072	0,031
-333,489	-200,000	0,022	0,100
-332,475	800,000	-0,076	0,155
-331,460	-103,562	-0,082	0,014
-330,445	-200,000	0,002	0,158
-329,431	597,266	0,064	0,116
-328,416	800,000	0,052	0,126
-327,402	86,225	0,038	0,030
-326,387	269,644	-0,095	0,121
-325,372	-200,000	-0,013	0,074
-324,358	-139,832	-0,026	-0,002
-323,343	-56,948	0,034	-0,011
-322,329	26,121	-0,202	0,122
-321,314	10,550	0,196	0,108
-320,299	-200,000	-0,020	0,146
-319,285	-200,000	-0,010	0,053
-318,270	737,736	-0,014	0,027
-317,256	-85,348	0,227	0,051
-316,241	800,000	-0,085	-0,187
-315,226	294,642	-0,061	-0,081
-314,212	390,743	-0,103	0,155
-313,197	57,592	-0,075	-0,053
-312,183	800,000	0,089	0,258
-311,168	-200,000	-0,007	0,077
-310,153	-200,000	0,017	-0,080
-309,139	-200,000	-0,004	-0,093
-308,124	-88,981	-0,031	-0,007
-307,110	163,599	0,029	-0,029
-306,095	800,000	0,028	-0,090
-305,080	171,055	-0,046	0,048
-304,066	510,658	-0,047	-0,079
-303,051	25,722	-0,105	0,063
-302,037	-200,000	-0,019	-0,070
-301,022	-29,283	0,122	0,050
-300,008	-34,112	0,238	0,094
-298,993	11,721	-0,048	-0,026
-297,978	800,000	-0,090	0,207
-296,964	-196,819	0,078	0,000
-295,949	-45,535	-0,164	-0,058
-294,935	188,130	-0,016	0,017
-293,920	-200,000	0,012	0,068
-292,905	-105,066	0,123	0,020
-291,891	238,668	0,067	0,080
-290,876	-200,000	0,013	0,053
-289,862	-36,550	-0,086	-0,033
-288,847	733,442	-0,020	-0,039
-287,832	-71,859	-0,064	-0,017
-286,818	-200,000	-0,002	-0,141
-285,803	-200,000	0,050	0,179
-284,789	-24,592	0,064	-0,028
-283,774	-128,983	0,097	-0,010
-282,759	63,739	-0,098	0,071
-281,745	33,540	0,071	0,045
-280,730	399,286	0,032	-0,049
-279,716	132,449	-0,050	0,046
-278,701	-200,000	-0,003	0,027
-277,686	800,000	0,006	-0,015
-276,672	-69,712	-0,082	-0,023
-275,657	373,354	0,053	0,078
-274,643	800,000	-0,067	0,136
-273,628	-70,324	0,057	-0,016
-272,613	86,957	-0,033	-0,026
-271,599	129,570	-0,110	0,102
-270,584	99,828	0,136	-0,114
-269,570	573,708	-0,058	-0,103
-268,555	66,242	-0,116	-0,085
-267,540	28,270	-0,103	-0,063
-266,526	800,000	0,046	-0,096
-265,511	-200,000	0,000	-0,039
-264,497	800,000	0,050	-0,119
-263,482	589,202	-0,031	0,056
-262,467	-129,287	0,197	0,020
-261,453	-53,175	0,128	-0,042
-260,438	-54,784	-0,035	-0,011
-259,424	64,352	0,034	-0,025
-258,409	637,445	-0,036	-0,066
-257,395	262,351	0,034	-0,042
-256,380	413,700	0,039	0,060
-255,365	800,000	0,025	0,054
-254,351	152,012	0,075	0,074
-253,336	64,616	-0,113	-0,082
-252,322	800,000	0,022	-0,045
-251,307	34,824	0,040	0,025
-250,292	82,430	0,012	0,010
-249,278	94,182	-0,031	-0,026
-248,263	165,162	0,035	0,036
-247,249	64,500	0,089	-0,065
-246,234	-7,683	-0,072	-0,035
-245,219	101,678	-0,105	-0,088
-244,205	-200,000	0,017	-0,142
-243,190	-200,000	0,012	-0,111
-242,176	800,000	0,042	-0,097
-241,161	32,821	0,135	0,084
-240,146	-200,000	-0,012	-0,068
-239,132	-200,000	-0,001	-0,055
-238,117	-70,525	-0,119	-0,032
-237,103	-200,000	0,024	-0,175
-236,088	-200,000	0,007	-0,072
-235,073	-8,594	-0,083	-0,040
-234,059	800,000	-0,051	0,160
-233,044	-32,315	0,011	0,005
-232,030	132,792	0,070	0,065
-231,015	-163,186	-0,062	-0,002
-230,000	419,855	-0,085	-0,131
-228,986	800,000	-0,007	-0,015
-227,971	54,534	-0,095	-0,066
-226,957	-66,348	0,161	0,046
-225,942	693,786	0,107	0,203
-224,927	38,783	-0,161	0,103
-223,913	142,516	-0,058	0,056
-222,898	632,804	0,027	-0,050
-221,884	-34,834	0,051	-0,020
-220,869	-200,000	-0,021	-0,076
-219,855	-132,639	-0,055	-0,005
-218,840	96,746	-0,022	0,018
-217,825	165,432	0,047	0,048
-216,811	-200,000	-0,055	-0,226
-215,796	-200,000	-0,011	0,036
-214,782	-200,000	0,015	-0,085
-213,767	-200,000	-0,003	-0,088
-212,752	228,673	0,137	0,161
-211,738	-200,000	-0,009	0,040
-210,723	-73,677	-0,011	-0,003
-209,709	-200,000	0,010	0,038
-208,694	-118,832	-0,070	-0,009
-207,679	-58,276	-0,065	0,020
-206,665	90,689	-0,104	0,084
-205,650	237,125	-0,053	-0,063
-204,636	61,197	0,115	0,082
-203,621	-200,000	-0,023	0,158
-202,606	229,669	-0,081	-0,095
-201,592	518,045	-0,013	0,022
-200,577	800,000	-0,055	-0,154
-199,563	44,349	0,101	0,067
-198,548	228,316	-0,109	-0,128
-197,533	-59,567	0,019	0,006
-196,519	-200,000	-0,001	0,006
-195,504	49,222	-0,070	-0,047
-194,490	-200,000	0,016	-0,092
-193,475	-139,559	0,227	0,017
-192,460	-200,000	-0,004	0,078
-191,446	-200,000	0,008	0,052
-190,431	800,000	0,052	0,146
-189,417	225,092	0,061	-0,072
-188,402	-200,000	0,012	0,044
-187,387	-55,466	0,114	-0,037
-186,373	147,805	-0,031	0,030
-185,358	89,396	-0,075	-0,060
-184,344	746,282	-0,042	0,082
-183,329	-32,734	0,113	-0,045
-182,315	-200,000	-0,003	0,025
-181,300	127,007	-0,013	0,012
-180,285	338,874	0,048	-0,068
-179,271	-138,375	0,127	-0,010
-178,256	-200,000	-0,052	-0,223
-177,242	163,004	-0,058	0,059
-176,227	-77,323	0,156	0,039
-175,212	28,979	0,129	-0,078
-174,198	-153,808	0,130	0,006
-173,183	-200,000	-0,015	-0,073
-172,169	-200,000	-0,022	0,163
-171,154	-200,000	-0,015	-0,071
-170,139	-200,000	-0,008	0,059
-169,125	-45,759	0,086	0,030
-168,110	248,943	0,017	0,021
-167,096	58,301	-0,058	0,041
-166,081	307,411	-0,016	0,021
-165,066	800,000	-0,028	-0,071
-164,052	151,186	-0,085	-0,084
-163,037	186,722	-0,017	0,018
-162,023	58,186	-0,132	0,093
-161,008	-200,000	-0,003	0,099
-159,993	211,711	0,022	-0,025
-158,979	200,178	-0,029	0,032
-157,964	193,272	0,021	-0,023
-156,950	-200,000	-0,006	-0,062
-155,935	-120,351	0,159	0,019
-154,920	585,754	0,042	0,075
-153,906	800,000	-0,066	0,133
-152,891	-200,000	0,012	-0,059
-151,877	606,157	-0,080	-0,144
-150,862	22,842	-0,180	-0,106
-149,847	-200,000	-0,023	0,084
-148,833	800,000	-0,067	-0,164
-147,818	-200,000	-0,037	0,161
-146,804	106,834	-0,137	0,116
-145,789	800,000	-0,043	0,100
-144,775	-200,000	-0,009	-0,063
-143,760	299,844	0,029	-0,039
-142,745	385,495	-0,024	0,036
-141,731	271,744	0,050	-0,064
-140,716	-130,332	0,080	-0,008
-139,702	-200,000	-0,016	-0,052
-138,687	-100,553	-0,053	-0,009
-137,672	251,603	-0,038	-0,046
-136,658	264,397	-0,025	-0,032
-135,643	-194,168	0,066	-0,000
-134,629	800,000	0,036	-0,093
-133,614	211,177	0,062	-0,070
-132,599	-62,994	-0,024	-0,007
-131,585	-185,266	0,105	-0,001
-130,570	-200,000	0,002	-0,058
-129,556	-200,000	0,016	-0,077
-128,541	224,887	-0,093	-0,109
-127,526	570,529	0,027	0,047
-126,512	707,590	0,019	0,036
-125,497	93,499	0,106	0,086
-124,483	94,283	0,136	0,111
-123,468	800,000	-0,012	0,024
-122,453	188,382	-0,052	0,056
-121,439	163,703	0,024	0,024
-120,424	707,114	-0,042	-0,079
