DTS Sentinel unit serial number:	SN410029Multiplexer serial number:	ORYXHardware model number:	OX2-SRSoftware version number:	ORYX F/W v4,00 Oryx Data Collector v3.7.2.0data status	okinstallation	B6 Nyhavnadifferential loss correction	single-endedforward channel	channel 2reverse channel	N/Adate	2023/12/09time	21:25:08forward acquisition time	300,00reverse acquisition time	0,00gamma	499,1914k internal	0,3128k external	0,3128temperature offset calibration	1,0000default loss term (dB/km)	0,3820temperature slope calibration	1,0000multiplexer offset coefficient	1,0000multiplexer slope coefficient	1,0000fibre end	0,00T internal ref (°C)	21,55T ext. ref 1 (°C)	5,43T ext. ref 2 (°C)	5,43length (m)	temperature (°C)	Stokes	anti-Stokes-744,400	363,425	0,102	0,153
-743,385	-53,026	-0,100	0,034
-742,371	78,345	0,045	-0,036
-741,356	-33,509	-0,208	0,085
-740,342	-200,000	-0,008	0,079
-739,327	-146,604	-0,284	-0,018
-738,312	-200,000	0,003	0,045
-737,298	-112,699	-0,234	-0,034
-736,283	114,870	-0,027	0,024
-735,269	243,551	-0,117	0,146
-734,254	-17,390	0,058	-0,027
-733,239	-120,370	-0,463	-0,058
-732,225	-106,515	-0,044	0,007
-731,210	-25,538	0,068	0,030
-730,196	-91,965	0,122	0,026
-729,181	229,207	-0,066	0,080
-728,167	80,817	-0,040	0,032
-727,152	-8,614	-0,016	-0,008
-726,137	205,357	-0,078	0,091
-725,123	-200,000	0,025	-0,084
-724,108	-119,014	-0,252	-0,032
-723,094	158,129	0,070	0,072
-722,079	60,176	-0,127	-0,093
-721,064	93,431	0,087	-0,073
-720,050	-200,000	-0,015	-0,102
-719,035	-93,547	0,032	0,007
-718,021	800,000	0,027	-0,063
-717,006	800,000	-0,037	-0,102
-715,991	-10,347	-0,208	-0,102
-714,977	299,470	0,045	-0,062
-713,962	181,505	0,051	-0,056
-712,948	-44,515	-0,053	-0,019
-711,933	477,460	-0,023	-0,039
-710,918	309,094	-0,021	-0,029
-709,904	-152,044	-0,107	0,006
-708,889	-162,556	-0,006	-0,000
-707,875	383,732	-0,010	-0,015
-706,860	64,664	0,062	0,047
-705,845	-19,006	-0,133	-0,061
-704,831	49,684	0,058	-0,041
-703,816	-84,270	-0,064	-0,015
-702,802	-126,247	0,036	-0,004
-701,787	-85,953	-0,088	0,020
-700,772	-200,000	0,018	-0,146
-699,758	140,817	-0,036	0,035
-698,743	-200,000	0,003	-0,015
-697,729	800,000	-0,009	0,027
-696,714	-200,000	-0,026	0,111
-695,699	-200,000	0,014	0,057
-694,685	-200,000	-0,006	-0,026
-693,670	-200,000	-0,001	-0,096
-692,656	-139,675	-0,136	0,011
-691,641	800,000	0,024	0,058
-690,627	-84,912	0,134	0,031
-689,612	18,078	0,050	0,030
-688,597	-70,793	-0,156	-0,043
-687,583	-200,000	-0,015	-0,073
-686,568	-145,742	-0,194	0,013
-685,554	-200,000	0,014	-0,049
-684,539	-200,000	0,010	0,048
-683,524	-52,835	0,186	0,063
-682,510	89,322	0,051	0,042
-681,495	55,117	0,015	-0,010
-680,481	800,000	-0,005	-0,011
-679,466	73,006	-0,106	-0,082
-678,451	50,980	0,048	-0,034
-677,437	800,000	-0,017	-0,044
-676,422	-200,000	0,034	-0,128
-675,408	159,837	-0,056	-0,057
-674,393	-200,000	-0,021	-0,131
-673,378	-200,000	-0,015	0,066
-672,364	800,000	0,032	-0,098
-671,349	171,403	0,069	0,073
-670,335	95,614	0,031	-0,026
-669,320	800,000	-0,028	-0,062
-668,305	-63,142	0,029	0,009
-667,291	99,907	-0,012	-0,011
-666,276	-200,000	0,035	-0,133
-665,262	184,897	-0,077	-0,085
-664,247	-200,000	0,003	-0,039
-663,232	-107,394	-0,057	-0,009
-662,218	-200,000	-0,025	-0,086
-661,203	-200,000	0,021	-0,077
-660,189	266,151	-0,049	-0,064
-659,174	131,948	0,051	-0,049
-658,159	-200,000	0,039	-0,192
-657,145	800,000	-0,068	-0,153
-656,130	271,933	-0,051	-0,067
-655,116	-44,046	-0,075	-0,028
-654,101	-200,000	0,017	0,139
-653,086	-200,000	0,000	0,023
-652,072	-99,595	-0,057	-0,010
-651,057	128,241	-0,048	0,045
-650,043	114,668	-0,029	-0,026
-649,028	39,915	-0,095	0,063
-648,014	-200,000	0,022	-0,093
-646,999	-200,000	-0,003	-0,012
-645,984	78,136	-0,059	-0,047
-644,970	377,181	0,018	0,028
-643,955	800,000	-0,014	0,035
-642,941	156,263	-0,137	-0,140
-641,926	630,199	0,025	-0,046
-640,911	49,848	0,127	-0,089
-639,897	-6,434	0,114	0,057
-638,882	200,905	0,066	0,076
-637,868	-47,280	0,094	-0,034
-636,853	-200,000	-0,000	-0,184
-635,838	205,650	-0,089	0,103
-634,824	173,884	0,027	-0,029
-633,809	-85,780	0,055	0,013
-632,795	56,956	0,062	-0,045
-631,780	301,182	0,068	-0,093
-630,765	-200,000	0,007	0,059
-629,751	14,140	-0,026	-0,015
-628,736	-35,223	0,151	0,061
-627,722	-5,426	-0,072	-0,036
-626,707	-100,030	-0,088	0,016
-625,692	800,000	0,053	0,160
-624,678	-2,009	0,138	0,072
-623,663	-200,000	0,011	0,064
-622,649	-200,000	0,003	-0,151
-621,634	-15,799	-0,041	-0,019
-620,619	800,000	0,048	-0,150
-619,605	-131,005	-0,062	0,006
-618,590	-9,676	-0,064	-0,031
-617,576	257,760	0,062	0,079
-616,561	-37,471	0,142	-0,056
-615,546	-200,000	0,016	0,058
-614,532	22,447	-0,176	-0,106
-613,517	-49,443	-0,149	-0,052
-612,503	800,000	0,031	0,068
-611,488	492,732	0,018	-0,031
-610,474	-200,000	0,003	0,091
-609,459	-200,000	-0,013	-0,047
-608,444	376,735	0,040	-0,061
-607,430	57,166	0,010	0,007
-606,415	171,453	-0,063	-0,067
-605,401	-128,431	-0,057	-0,006
-604,386	196,593	-0,011	0,012
-603,371	139,497	-0,046	-0,045
-602,357	-65,149	-0,073	-0,022
-601,342	32,310	-0,084	-0,053
-600,328	-37,203	-0,107	-0,042
-599,313	364,688	-0,020	0,030
-598,298	375,751	-0,043	-0,066
-597,284	754,471	-0,037	-0,074
-596,269	-200,000	0,003	0,023
-595,255	-72,626	0,046	-0,012
-594,240	45,943	0,085	0,058
-593,225	-200,000	-0,008	-0,099
-592,211	-7,419	-0,048	-0,024
-591,196	-22,971	-0,146	0,065
-590,182	-200,000	-0,001	-0,121
-589,167	-64,967	-0,036	-0,011
-588,152	469,412	0,070	0,116
-587,138	-2,014	0,085	0,044
-586,123	-15,335	-0,170	-0,080
-585,109	-200,000	-0,002	0,060
-584,094	-190,558	0,022	0,000
-583,079	-10,201	0,102	-0,050
-582,065	-122,829	0,120	0,014
-581,050	-200,000	0,003	0,046
-580,036	-139,053	-0,109	0,009
-579,021	430,010	-0,086	0,139
-578,006	34,461	-0,117	0,075
-576,992	800,000	0,108	-0,229
-575,977	800,000	-0,031	0,084
-574,963	25,544	0,125	0,077
-573,948	567,923	0,033	0,060
-572,934	-66,341	0,122	0,036
-571,919	184,084	-0,035	0,039
-570,904	-200,000	-0,004	-0,025
-569,890	-200,000	-0,018	0,084
-568,875	46,652	0,051	-0,035
-567,861	-108,688	0,128	0,020
-566,846	800,000	0,026	0,068
-565,831	800,000	-0,035	-0,113
-564,817	-135,970	-0,116	-0,010
-563,802	800,000	-0,098	-0,248
-562,788	-150,439	-0,046	0,003
-561,773	-200,000	0,013	0,075
-560,758	443,939	0,060	0,097
-559,744	-200,000	-0,016	0,116
-558,729	307,229	-0,066	0,091
-557,715	-72,345	-0,026	-0,007
-556,700	800,000	-0,028	-0,075
-555,685	420,052	-0,086	-0,137
-554,671	688,534	0,056	-0,109
-553,656	95,459	0,047	0,040
-552,642	566,293	0,057	0,103
-551,627	192,095	0,054	0,061
-550,612	-200,000	-0,046	0,000
-549,598	-91,414	-0,091	0,019
-548,583	7,449	-0,107	-0,059
-547,569	25,758	-0,139	-0,085
-546,554	800,000	-0,032	-0,086
-545,539	211,895	0,139	0,162
-544,525	91,881	0,023	0,019
-543,510	-200,000	0,002	0,042
-542,496	403,958	-0,047	0,074
-541,481	367,541	-0,048	-0,072
-540,466	-83,633	0,016	-0,004
-539,452	61,188	-0,084	0,061
-538,437	-200,000	-0,002	0,052
-537,423	-200,000	-0,011	0,121
-536,408	-112,200	0,032	-0,005
-535,393	-200,000	-0,020	0,072
-534,379	241,458	-0,065	0,081
-533,364	-172,945	0,041	-0,001
-532,350	-200,000	-0,002	-0,028
-531,335	-114,353	0,070	0,010
-530,321	34,868	0,056	0,036
-529,306	-200,000	0,022	-0,075
-528,291	322,017	-0,042	-0,059
-527,277	-200,000	0,006	-0,037
-526,262	118,827	-0,093	-0,085
-525,248	265,426	0,060	0,077
-524,233	522,833	-0,056	-0,098
-523,218	-102,937	-0,024	0,004
-522,204	800,000	0,038	-0,080
-521,189	34,906	0,071	-0,046
-520,175	58,360	0,147	0,106
-519,160	428,792	-0,088	-0,141
-518,145	-0,673	-0,036	0,019
-517,131	-131,203	0,091	0,009
-516,116	-18,806	0,069	0,032
-515,102	143,548	-0,031	0,031
-514,087	510,648	0,047	-0,080
-513,072	-200,000	-0,023	-0,132
-512,058	-29,175	-0,039	0,016
-511,043	260,156	-0,011	0,014
-510,029	287,939	-0,058	-0,077
-509,014	149,578	-0,032	-0,032
-507,999	-46,339	0,075	0,027
-506,985	44,443	0,037	0,025
-505,970	-200,000	0,015	-0,050
-504,956	800,000	0,007	0,017
-503,941	-200,000	-0,026	-0,107
-502,926	-103,412	0,123	0,021
-501,912	-200,000	-0,021	0,070
-500,897	-200,000	-0,009	0,153
-499,883	633,719	0,017	-0,032
-498,868	-200,000	0,036	-0,204
-497,853	172,797	-0,057	-0,061
-496,839	168,951	-0,021	0,022
-495,824	-29,291	0,127	-0,054
-494,810	-200,000	-0,004	0,139
-493,795	-13,806	-0,120	0,057
-492,781	-200,000	0,007	0,112
-491,766	-200,000	-0,014	-0,119
-490,751	386,030	0,048	-0,074
-489,737	170,236	0,044	0,047
-488,722	800,000	0,029	-0,080
-487,708	196,006	0,033	0,037
-486,693	800,000	0,022	0,061
-485,678	-36,095	-0,052	-0,021
-484,664	52,933	-0,150	-0,106
-483,649	-200,000	0,026	-0,090
-482,635	-166,301	0,069	-0,002
-481,620	-71,168	-0,053	-0,014
-480,605	-96,565	0,097	-0,019
-479,591	-80,934	0,089	-0,021
-478,576	76,699	-0,084	-0,066
-477,562	-200,000	-0,022	-0,081
-476,547	173,482	-0,020	-0,022
-475,532	-200,000	0,015	0,061
-474,518	132,496	0,026	0,024
-473,503	-98,349	0,140	0,026
-472,489	208,650	0,086	-0,100
-471,474	-34,980	0,060	-0,024
-470,459	-119,313	-0,160	0,020
-469,445	-123,704	-0,112	0,013
-468,430	722,594	0,038	-0,074
-467,416	-200,000	0,004	-0,021
-466,401	800,000	0,018	0,052
-465,386	800,000	-0,039	0,121
-464,372	506,420	-0,058	-0,100
-463,357	375,562	0,048	-0,072
-462,343	162,836	0,091	-0,094
-461,328	800,000	0,023	0,059
-460,313	10,433	-0,105	-0,058
-459,299	215,455	0,107	0,125
-458,284	-200,000	0,000	0,077
-457,270	68,014	0,083	0,062
-456,255	800,000	0,044	-0,138
-455,241	-65,111	-0,126	-0,037
-454,226	-154,890	-0,053	-0,003
-453,211	-5,507	0,095	0,048
-452,197	368,141	-0,037	-0,055
-451,182	-54,589	0,082	0,027
-450,168	145,113	0,066	-0,065
-449,153	211,257	-0,054	0,062
-448,138	316,794	-0,026	-0,036
-447,124	-200,000	-0,005	-0,026
-446,109	-200,000	0,038	-0,145
-445,095	-4,868	0,190	0,096
-444,080	196,895	0,071	0,080
-443,065	123,120	0,113	0,104
-442,051	227,028	-0,068	-0,082
-441,036	727,726	-0,006	0,011
-440,022	66,768	0,024	-0,018
-439,007	391,886	0,066	-0,101
-437,992	16,564	0,134	0,078
-436,978	60,799	0,136	0,099
-435,963	51,173	0,074	-0,052
-434,949	75,117	0,032	0,025
-433,934	420,028	-0,070	-0,110
-432,919	800,000	-0,024	-0,060
-431,905	58,408	0,038	-0,028
-430,890	172,072	0,061	0,064
-429,876	-200,000	0,003	0,107
-428,861	-200,000	0,004	0,062
-427,846	-200,000	-0,002	-0,029
-426,832	-200,000	-0,001	-0,071
-425,817	-200,000	-0,006	-0,105
-424,803	186,610	0,029	-0,032
-423,788	-43,102	0,085	0,032
-422,773	800,000	-0,021	0,065
-421,759	-48,615	0,033	-0,012
-420,744	268,590	-0,028	0,036
-419,730	-200,000	-0,039	-0,129
-418,715	469,248	-0,098	0,162
-417,701	-0,480	-0,030	-0,016
-416,686	51,455	-0,056	-0,039
-415,671	800,000	0,048	0,120
-414,657	-200,000	-0,017	0,224
-413,642	290,578	0,051	-0,069
-412,628	544,866	-0,013	0,023
-411,613	-200,000	-0,012	-0,137
-410,598	246,239	0,071	-0,088
-409,584	800,000	0,049	0,102
-408,569	-60,350	0,092	0,029
-407,555	736,385	0,058	-0,114
-406,540	273,671	-0,082	-0,107
-405,525	-41,716	-0,136	-0,051
-404,511	800,000	0,021	-0,067
-403,496	166,238	-0,160	-0,166
-402,482	-86,849	-0,076	0,017
-401,467	800,000	-0,036	0,091
-400,452	-200,000	0,018	-0,069
-399,438	-29,359	-0,050	0,021
-398,423	63,310	-0,021	0,015
-397,409	800,000	0,075	-0,181
-396,394	-158,389	-0,101	0,004
-395,379	265,840	0,090	0,116
-394,365	-200,000	0,030	0,109
-393,350	-200,000	0,004	0,044
-392,336	800,000	0,021	0,065
-391,321	333,720	-0,059	0,084
-390,306	-200,000	-0,040	-0,138
-389,292	223,909	-0,042	0,050
-388,277	100,630	0,105	0,089
-387,263	9,889	0,075	-0,042
-386,248	791,249	-0,088	0,179
-385,233	15,073	-0,112	0,064
-384,219	629,588	0,027	0,051
-383,204	-41,108	-0,146	0,055
-382,190	-200,000	-0,020	-0,111
-381,175	-43,194	-0,107	-0,039
-380,160	-20,379	0,131	-0,059
-379,146	-200,000	0,011	-0,039
-378,131	-33,962	0,016	0,006
-377,117	54,757	-0,114	-0,080
-376,102	-136,025	-0,173	0,015
-375,088	-200,000	-0,010	-0,071
-374,073	-200,000	-0,023	-0,092
-373,058	75,377	0,115	-0,089
-372,044	-122,860	0,066	-0,008
-371,029	223,774	0,027	0,032
-370,015	197,027	-0,108	-0,121
-369,000	268,312	0,003	0,003
-367,985	-200,000	0,014	-0,069
-366,971	55,849	-0,076	0,054
-365,956	208,246	-0,021	-0,025
-364,942	-9,456	0,030	-0,014
-363,927	-200,000	0,047	0,185
-362,912	-200,000	-0,001	0,067
-361,898	122,881	-0,063	-0,058
-360,883	-200,000	-0,036	-0,157
-359,869	-200,000	-0,007	0,059
-358,854	-200,000	-0,038	0,156
-357,839	-200,000	0,002	-0,016
-356,825	63,093	0,135	0,099
-355,810	-7,824	-0,109	-0,054
-354,796	-30,268	0,089	0,037
-353,781	321,135	-0,091	-0,127
-352,766	-192,548	0,235	-0,002
-351,752	-20,880	-0,045	0,020
-350,737	-200,000	0,016	0,210
-349,723	569,017	-0,109	0,195
-348,708	-67,726	-0,058	-0,017
-347,693	800,000	-0,064	-0,148
-346,679	-79,549	-0,085	-0,021
-345,664	46,259	-0,059	-0,040
-344,650	-200,000	0,007	0,052
-343,635	-125,914	0,076	0,008
-342,620	-145,932	0,065	-0,004
-341,606	-200,000	-0,021	-0,213
-340,591	-44,580	-0,137	-0,050
-339,577	322,371	-0,046	-0,064
-338,562	-89,330	0,064	0,014
-337,548	337,496	-0,014	0,021
-336,533	-200,000	0,011	-0,051
-335,518	-166,137	0,074	-0,002
-334,504	513,590	0,052	0,090
-333,489	43,401	-0,060	0,040
-332,475	-28,323	0,051	0,022
-331,460	-200,000	0,005	-0,019
-330,445	81,787	0,062	0,049
-329,431	90,227	0,103	-0,084
-328,416	-93,904	0,030	0,006
-327,402	671,592	0,027	0,052
-326,387	223,242	0,028	0,033
-325,372	-98,686	-0,087	0,016
-324,358	-200,000	0,029	-0,111
-323,343	266,921	-0,041	0,052
-322,329	-10,911	-0,090	0,043
-321,314	800,000	-0,031	0,078
-320,299	-147,220	0,101	0,006
-319,285	104,614	-0,062	-0,054
-318,270	-121,226	-0,068	0,008
-317,256	-34,214	0,113	0,045
-316,241	-130,119	-0,132	-0,013
-315,226	-130,348	0,105	-0,010
-314,212	-200,000	0,042	0,144
-313,197	-200,000	-0,012	0,055
-312,183	527,949	-0,056	-0,098
-311,168	-22,485	-0,049	-0,022
-310,153	-5,009	-0,118	0,059
-309,139	30,318	0,105	-0,066
-308,124	-135,073	-0,044	0,004
-307,110	757,137	0,094	0,187
-306,095	643,479	-0,076	0,142
-305,080	-200,000	0,008	0,043
-304,066	59,740	-0,021	-0,015
-303,051	-49,652	0,056	-0,019
-302,037	570,501	0,034	0,061
-301,022	-127,224	0,098	0,010
-300,008	79,754	-0,017	-0,013
-298,993	-4,244	0,079	0,040
-297,978	-200,000	-0,002	-0,020
-296,964	-200,000	-0,001	-0,005
-295,949	-11,191	-0,072	0,035
-294,935	-31,972	0,076	-0,031
-293,920	-200,000	-0,009	-0,074
-292,905	-155,337	-0,100	-0,005
-291,891	128,481	-0,016	0,015
-290,876	341,417	-0,101	0,145
-289,862	65,846	0,040	-0,029
-288,847	48,923	-0,076	-0,052
-287,832	508,254	-0,035	-0,060
-286,818	96,256	-0,062	-0,052
-285,803	209,158	0,010	-0,012
-284,789	800,000	-0,060	-0,128
-283,774	119,909	-0,038	0,034
-282,759	-200,000	-0,034	0,134
-281,745	48,311	0,109	0,074
-280,730	-1,835	-0,112	-0,058
-279,716	-200,000	0,005	-0,040
-278,701	611,994	-0,032	0,059
-277,686	-200,000	0,011	-0,065
-276,672	102,158	0,118	0,101
-275,657	6,973	0,089	-0,049
-274,643	-95,126	-0,079	0,015
-273,628	24,408	-0,067	0,040
-272,613	196,930	-0,070	-0,078
-271,599	-200,000	-0,023	0,122
-270,584	-111,431	0,111	0,016
-269,570	452,300	0,034	-0,056
-268,555	49,635	-0,119	0,082
-267,540	-120,930	-0,058	-0,007
-266,526	-200,000	-0,009	-0,141
-265,511	-40,737	0,041	-0,015
-264,497	-200,000	0,006	0,097
-263,482	-200,000	0,011	0,129
-262,467	245,729	-0,022	0,028
-261,453	57,325	0,087	0,062
-260,438	383,433	-0,033	0,050
-259,424	-107,445	-0,053	-0,008
-258,409	800,000	0,078	-0,243
-257,395	-200,000	-0,013	0,082
-256,380	457,978	0,035	0,057
-255,365	39,467	0,097	-0,064
-254,351	-27,755	-0,096	-0,041
-253,336	-200,000	-0,015	-0,108
-252,322	21,274	0,147	0,087
-251,307	-8,594	0,032	-0,015
-250,292	-30,070	0,044	0,018
-249,278	371,239	-0,079	0,118
-248,263	46,016	0,124	0,084
-247,249	-24,608	-0,087	-0,038
-246,234	-108,032	-0,083	0,013
-245,219	-23,300	-0,156	0,068
-244,205	264,816	-0,115	-0,147
-243,190	13,602	0,097	-0,055
-242,176	800,000	-0,027	-0,065
-241,161	-9,961	-0,113	0,054
-240,146	-200,000	0,009	-0,056
-239,132	-74,258	0,073	-0,019
-238,117	-113,884	0,019	-0,003
-237,103	800,000	-0,031	-0,083
-236,088	800,000	-0,041	-0,117
-235,073	30,521	0,052	-0,032
-234,059	26,057	0,093	0,057
-233,044	-200,000	-0,012	-0,106
-232,030	438,104	0,054	0,087
-231,015	216,904	-0,075	0,087
-230,000	142,603	0,033	0,032
-228,986	20,862	0,123	0,072
-227,971	90,042	-0,031	0,025
-226,957	488,074	0,066	0,110
-225,942	163,148	-0,031	-0,031
-224,927	-200,000	-0,004	-0,086
-223,913	-200,000	-0,000	-0,061
-222,898	-200,000	-0,040	0,131
-221,884	104,634	0,143	-0,123
-220,869	-200,000	0,006	-0,043
-219,855	103,384	0,045	0,038
-218,840	479,164	0,072	0,119
-217,825	60,999	-0,072	0,052
-216,811	-57,833	-0,112	-0,036
-215,796	-129,559	-0,155	0,015
-214,782	-127,522	0,025	-0,003
-213,767	-109,555	-0,096	0,015
-212,752	-107,978	0,011	0,002
-211,738	-58,783	0,072	0,022
-210,723	800,000	-0,023	-0,051
-209,709	403,097	0,075	-0,115
-208,694	800,000	0,038	0,111
-207,679	76,601	-0,035	-0,027
-206,665	-3,942	0,150	0,075
-205,650	-145,731	-0,056	-0,004
-204,636	-200,000	0,014	0,143
-203,621	-74,227	-0,168	0,044
-202,606	800,000	0,030	0,065
-201,592	800,000	0,017	-0,043
-200,577	-200,000	0,001	0,074
-199,563	64,588	-0,077	-0,056
-198,548	-19,803	0,045	0,020
-197,533	148,440	-0,089	0,087
-196,519	-174,823	-0,046	0,001
-195,504	135,212	0,050	-0,047
-194,490	-43,128	0,103	-0,038
-193,475	800,000	0,022	0,047
-192,460	76,342	0,045	0,035
-191,446	53,702	0,052	0,036
-190,431	166,322	0,059	-0,061
-189,417	800,000	-0,028	0,079
-188,402	341,615	-0,028	0,040
-187,387	800,000	0,036	-0,077
-186,373	142,804	-0,054	0,053
-185,358	800,000	0,026	0,081
-184,344	210,201	-0,045	0,051
-183,329	588,528	-0,053	-0,095
-182,315	494,669	-0,050	-0,083
-181,300	-160,406	0,135	-0,005
-180,285	-200,000	0,033	0,126
-179,271	-156,942	0,054	-0,002
-178,256	800,000	0,019	0,046
-177,242	183,519	-0,051	-0,055
-176,227	-28,028	-0,122	-0,051
-175,212	-200,000	-0,001	0,168
-174,198	428,745	0,030	0,047
-173,183	800,000	0,060	-0,187
-172,169	9,146	-0,114	-0,063
-171,154	-84,544	0,064	-0,014
-170,139	-54,104	0,045	-0,015
-169,125	274,155	0,059	0,077
-168,110	800,000	0,030	0,096
-167,096	800,000	-0,036	-0,108
-166,081	-200,000	-0,022	0,078
-165,066	-44,521	-0,058	0,021
-164,052	800,000	-0,038	0,107
-163,037	-200,000	0,009	0,082
-162,023	-192,166	0,121	0,001
-161,008	-200,000	0,038	0,151
-159,993	79,726	-0,047	0,036
-158,979	64,661	-0,093	-0,068
-157,964	-67,427	0,125	0,036
-156,950	800,000	-0,025	-0,075
-155,935	51,532	-0,119	-0,082
-154,920	-138,414	0,015	-0,001
-153,906	-41,558	0,095	0,035
-152,891	-200,000	-0,009	-0,076
-151,877	-40,280	-0,050	0,019
-150,862	390,417	-0,011	-0,017
-149,847	-64,028	0,023	0,007
-148,833	304,411	-0,074	-0,100
-147,818	575,290	-0,022	0,038
-146,804	-144,818	-0,097	-0,006
-145,789	66,895	0,071	0,052
-144,775	-142,224	-0,084	-0,006
-143,760	90,542	-0,112	-0,092
-142,745	-32,363	0,116	0,047
-141,731	537,213	-0,035	0,060
-140,716	-200,000	-0,001	-0,045
-139,702	-95,013	0,142	0,028
-138,687	405,036	0,035	0,054
-137,672	-79,876	-0,129	-0,031
-136,658	120,773	-0,073	-0,066
-135,643	800,000	-0,032	-0,095
-134,629	-10,660	-0,043	-0,021
-133,614	-200,000	0,008	-0,053
-132,599	496,305	-0,039	0,065
-131,585	-200,000	-0,048	0,165
-130,570	65,007	-0,085	-0,063
-129,556	-200,000	-0,002	-0,134
-128,541	-139,099	-0,116	-0,009
-127,526	-101,909	0,107	-0,019
-126,512	800,000	-0,038	-0,081
-125,497	-200,000	0,037	0,143
-124,483	391,111	0,026	0,039
-123,468	-44,477	-0,136	0,049
-122,453	-46,093	-0,061	-0,022
-121,439	-55,957	0,072	-0,023
-120,424	376,175	0,081	0,121
-119,410	-18,794	0,065	0,029
