DTS Sentinel unit serial number:	SN410029Multiplexer serial number:	ORYXHardware model number:	OX2-SRSoftware version number:	ORYX F/W v4,00 Oryx Data Collector v3.7.2.0data status	okinstallation	B6 Nyhavnadifferential loss correction	single-endedforward channel	channel 2reverse channel	N/Adate	2023/12/07time	18:10:08forward acquisition time	300,00reverse acquisition time	0,00gamma	499,1914k internal	0,3164k external	0,3164temperature offset calibration	1,0000default loss term (dB/km)	0,3820temperature slope calibration	1,0000multiplexer offset coefficient	1,0000multiplexer slope coefficient	1,0000fibre end	0,00T internal ref (°C)	14,31T ext. ref 1 (°C)	-2,66T ext. ref 2 (°C)	-2,68length (m)	temperature (°C)	Stokes	anti-Stokes-744,400	800,000	0,044	-0,090
-743,385	17,451	-0,226	-0,132
-742,371	-21,763	0,200	0,089
-741,356	-131,019	-0,295	0,029
-740,342	150,905	0,129	0,130
-739,327	-135,295	-0,390	-0,034
-738,312	-111,178	0,197	0,029
-737,298	-65,078	-0,457	-0,135
-736,283	-84,392	0,242	0,056
-735,269	-160,145	-0,345	0,014
-734,254	39,977	0,086	0,057
-733,239	12,515	-0,461	-0,261
-732,225	493,956	0,052	0,088
-731,210	-43,531	-0,041	-0,015
-730,196	-200,000	-0,013	-0,066
-729,181	-32,700	-0,049	-0,020
-728,167	254,731	-0,050	-0,063
-727,152	109,397	-0,088	0,078
-726,137	-126,321	-0,098	0,011
-725,123	460,836	-0,024	-0,039
-724,108	-6,683	-0,087	0,043
-723,094	-200,000	0,011	-0,074
-722,079	434,301	0,029	-0,046
-721,064	-200,000	-0,027	-0,109
-720,050	208,684	-0,061	0,070
-719,035	345,697	-0,013	-0,019
-718,021	328,588	-0,065	0,092
-717,006	-49,643	0,069	-0,024
-715,991	800,000	-0,046	-0,148
-714,977	-87,224	-0,168	0,037
-713,962	-200,000	-0,025	0,155
-712,948	800,000	-0,020	-0,046
-711,933	-120,679	-0,132	-0,016
-710,918	-101,030	0,089	-0,016
-709,904	-113,395	-0,101	-0,014
-708,889	-6,486	-0,105	-0,052
-707,875	222,420	0,031	0,037
-706,860	-124,335	-0,101	0,011
-705,845	185,918	-0,032	0,035
-704,831	359,600	-0,099	0,147
-703,816	-31,830	-0,072	-0,030
-702,802	-200,000	0,016	-0,079
-701,787	-88,230	-0,103	0,022
-700,772	92,412	-0,095	-0,079
-699,758	135,473	-0,069	-0,066
-698,743	-172,765	0,072	-0,002
-697,729	800,000	-0,055	0,134
-696,714	-184,225	-0,028	0,000
-695,699	-63,038	-0,096	-0,029
-694,685	-200,000	-0,035	0,135
-693,670	313,102	0,072	0,100
-692,656	115,336	0,094	-0,084
-691,641	-200,000	-0,004	-0,180
-690,627	-33,015	-0,006	-0,002
-689,612	48,193	-0,116	0,079
-688,597	-123,232	-0,096	0,011
-687,583	-130,213	-0,047	-0,005
-686,568	-200,000	-0,043	-0,160
-685,554	-141,669	-0,154	-0,011
-684,539	800,000	0,015	0,034
-683,524	-200,000	0,002	0,072
-682,510	800,000	-0,051	0,158
-681,495	-81,908	-0,166	0,040
-680,481	800,000	-0,032	-0,101
-679,466	-200,000	-0,032	-0,123
-678,451	19,975	0,076	-0,045
-677,437	39,582	-0,067	0,044
-676,422	665,796	0,100	0,190
-675,408	-0,636	-0,083	0,043
-674,393	-153,988	-0,242	-0,012
-673,378	19,808	-0,063	-0,037
-672,364	-200,000	-0,020	-0,097
-671,349	-139,410	0,037	-0,003
-670,335	377,412	-0,119	0,179
-669,320	780,605	-0,068	-0,137
-668,305	109,054	0,078	-0,068
-667,291	-106,191	-0,017	0,003
-666,276	800,000	0,025	-0,062
-665,262	-60,624	-0,130	0,040
-664,247	242,079	-0,106	-0,130
-663,232	-61,259	0,090	-0,027
-662,218	-200,000	0,013	-0,051
-661,203	-117,385	-0,095	-0,012
-660,189	-73,718	0,055	0,015
-659,174	181,275	0,033	0,036
-658,159	402,305	0,079	-0,122
-657,145	-99,474	-0,068	-0,012
-656,130	-88,436	-0,076	-0,017
-655,116	-200,000	-0,044	0,154
-654,101	335,824	-0,008	-0,012
-653,086	-200,000	-0,002	0,068
-652,072	12,678	0,116	-0,065
-651,057	337,812	-0,152	-0,218
-650,043	149,757	0,045	-0,045
-649,028	-10,507	0,010	-0,005
-648,014	255,982	0,052	0,066
-646,999	-200,000	-0,010	-0,061
-645,984	-200,000	0,005	-0,069
-644,970	-18,443	0,132	-0,060
-643,955	-200,000	-0,041	-0,141
-642,941	-156,836	-0,113	0,005
-641,926	145,669	0,076	0,075
-640,911	-200,000	-0,022	0,084
-639,897	-26,548	0,009	0,004
-638,882	124,485	0,046	-0,043
-637,868	-200,000	-0,009	0,080
-636,853	-155,712	-0,069	-0,003
-635,838	800,000	-0,065	0,177
-634,824	800,000	-0,064	-0,158
-633,809	800,000	0,060	-0,141
-632,795	514,940	-0,040	0,068
-631,780	13,881	-0,120	0,068
-630,765	5,977	-0,080	0,043
-629,751	92,439	-0,145	-0,120
-628,736	569,766	-0,055	-0,098
-627,722	171,018	-0,045	0,047
-626,707	-157,101	-0,056	-0,002
-625,692	295,264	0,047	-0,063
-624,678	-64,867	0,100	-0,029
-623,663	28,872	-0,055	0,034
-622,649	2,632	0,060	0,032
-621,634	388,992	-0,020	-0,030
-620,619	-200,000	0,011	-0,042
-619,605	-200,000	-0,020	-0,110
-618,590	608,279	0,030	0,055
-617,576	800,000	-0,018	0,046
-616,561	106,076	0,172	0,149
-615,546	108,789	0,075	-0,065
-614,532	118,870	-0,133	0,121
-613,517	339,895	-0,087	-0,125
-612,503	416,402	0,099	-0,156
-611,488	-12,973	0,092	-0,044
-610,474	180,595	-0,059	-0,064
-609,459	119,142	0,087	0,079
-608,444	-200,000	-0,002	-0,037
-607,430	398,167	0,060	0,091
-606,415	-200,000	-0,025	-0,139
-605,401	-14,666	0,069	0,032
-604,386	228,206	0,106	-0,126
-603,371	-23,745	0,124	-0,054
-602,357	-103,226	0,105	-0,018
-601,342	85,827	-0,088	0,070
-600,328	271,271	0,129	0,166
-599,313	-57,855	-0,072	-0,023
-598,298	-36,128	0,061	-0,024
-597,284	-138,132	-0,117	0,009
-596,269	-200,000	0,043	0,168
-595,255	-200,000	-0,008	0,080
-594,240	438,247	-0,049	-0,078
-593,225	-176,149	-0,023	0,000
-592,211	403,133	-0,048	0,074
-591,196	-41,159	0,058	0,022
-590,182	-172,697	-0,104	-0,002
-589,167	264,117	0,072	0,092
-588,152	78,819	-0,041	-0,032
-587,138	-0,908	0,056	0,029
-586,123	181,323	-0,093	-0,100
-585,109	455,682	-0,032	-0,052
-584,094	-81,635	0,130	-0,031
-583,079	75,081	-0,041	0,031
-582,065	24,026	0,007	0,004
-581,050	-75,567	-0,061	-0,016
-580,036	-200,000	-0,003	0,025
-579,021	800,000	0,025	-0,079
-578,006	281,549	-0,027	-0,036
-576,992	800,000	-0,019	0,054
-575,977	-27,792	0,027	0,011
-574,963	-200,000	0,016	0,078
-573,948	754,683	-0,062	-0,124
-572,934	-97,420	-0,025	0,005
-571,919	-200,000	-0,015	0,061
-570,904	-107,655	0,079	-0,012
-569,890	-200,000	0,020	-0,095
-568,875	-200,000	0,011	-0,098
-567,861	-200,000	-0,001	-0,035
-566,846	-115,227	-0,063	-0,009
-565,831	205,740	-0,046	0,052
-564,817	608,226	0,040	-0,073
-563,802	359,042	-0,028	-0,041
-562,788	-102,279	0,060	-0,010
-561,773	16,347	0,063	0,036
-560,758	-58,913	0,035	0,011
-559,744	139,038	0,132	0,127
-558,729	169,522	-0,081	0,085
-557,715	-53,312	0,033	-0,011
-556,700	-200,000	-0,019	-0,076
-555,685	530,714	0,039	0,068
-554,671	-66,906	-0,102	-0,029
-553,656	-95,022	-0,113	0,022
-552,642	331,996	-0,003	-0,005
-551,627	-51,427	0,057	-0,020
-550,612	800,000	-0,036	-0,100
-549,598	-198,868	-0,039	0,000
-548,583	-200,000	0,002	0,052
-547,569	-105,761	0,058	-0,009
-546,554	-56,059	0,169	-0,055
-545,539	23,068	0,070	-0,042
-544,525	-14,337	-0,046	0,021
-543,510	-39,533	-0,090	0,034
-542,496	-128,291	-0,042	0,004
-541,481	-200,000	-0,006	0,094
-540,466	236,370	-0,034	-0,041
-539,452	103,187	0,089	-0,076
-538,437	18,715	0,057	0,033
-537,423	417,192	-0,068	0,106
-536,408	82,304	-0,161	-0,127
-535,393	-182,219	0,094	-0,001
-534,379	348,350	-0,030	0,043
-533,364	365,894	-0,037	0,055
-532,350	233,992	0,095	0,114
-531,335	-200,000	-0,004	0,070
-530,321	714,240	-0,081	0,157
-529,306	-200,000	0,003	0,071
-528,291	517,239	0,093	0,160
-527,277	800,000	-0,025	-0,052
-526,262	77,076	-0,071	-0,055
-525,248	262,688	-0,041	-0,052
-524,233	53,256	-0,024	0,017
-523,218	213,031	0,060	-0,069
-522,204	-155,532	0,019	-0,001
-521,189	-3,270	0,128	0,065
-520,175	1,235	0,031	0,016
-519,160	-200,000	0,019	-0,085
-518,145	-123,717	0,132	-0,015
-517,131	2,735	0,107	-0,056
-516,116	-57,952	0,050	0,016
-515,102	-54,290	0,113	-0,037
-514,087	207,049	-0,012	0,014
-513,072	-200,000	0,020	-0,082
-512,058	-200,000	0,007	-0,074
-511,043	-200,000	-0,000	0,014
-510,029	172,740	0,052	0,055
-509,014	800,000	-0,014	0,030
-507,999	800,000	0,042	0,091
-506,985	24,567	-0,172	-0,104
-505,970	142,962	-0,038	0,037
-504,956	136,292	-0,102	-0,097
-503,941	181,881	-0,061	-0,066
-502,926	-29,937	-0,072	0,030
-501,912	800,000	-0,040	-0,095
-500,897	-27,807	-0,095	-0,040
-499,883	-184,304	-0,176	0,002
-498,868	-28,774	0,121	-0,050
-497,853	-0,109	-0,067	-0,035
-496,839	-80,669	0,085	0,020
-495,824	120,189	0,043	-0,039
-494,810	-200,000	-0,014	-0,113
-493,795	-200,000	0,028	0,151
-492,781	202,836	-0,037	0,042
-491,766	800,000	-0,024	0,062
-490,751	-107,113	0,097	0,015
-489,737	800,000	-0,029	0,059
-488,722	124,006	0,154	0,141
-487,708	-200,000	-0,004	-0,028
-486,693	190,664	0,094	0,103
-485,678	-112,626	0,047	0,007
-484,664	-106,415	-0,079	0,013
-483,649	-85,575	0,028	0,006
-482,635	-200,000	-0,042	-0,146
-481,620	800,000	0,033	0,077
-480,605	-200,000	-0,002	-0,031
-479,591	493,910	0,022	0,037
-478,576	-36,598	0,108	0,042
-477,562	-200,000	0,008	0,072
-476,547	800,000	0,048	-0,123
-475,532	54,670	0,055	-0,039
-474,518	-200,000	-0,017	0,103
-473,503	-31,165	0,047	0,019
-472,489	800,000	-0,031	0,072
-471,474	62,836	0,035	-0,025
-470,459	-113,837	0,054	-0,008
-469,445	-2,376	-0,089	-0,045
-468,430	-200,000	-0,005	0,068
-467,416	181,158	-0,060	0,064
-466,401	639,983	0,038	0,070
-465,386	-200,000	0,022	-0,086
-464,372	118,960	-0,080	-0,072
-463,357	800,000	-0,047	-0,133
-462,343	43,074	-0,052	0,035
-461,328	612,202	-0,059	-0,108
-460,313	118,581	-0,028	-0,025
-459,299	98,778	0,078	0,065
-458,284	800,000	0,038	0,121
-457,270	-15,422	-0,054	-0,025
-456,255	-200,000	-0,010	-0,120
-455,241	36,106	-0,034	-0,022
-454,226	368,098	0,020	-0,029
-453,211	-77,417	-0,017	0,004
-452,197	800,000	0,029	-0,061
-451,182	-200,000	0,021	0,072
-450,168	-15,675	0,076	0,035
-449,153	349,373	0,053	0,077
-448,138	392,801	-0,066	-0,100
-447,124	-200,000	0,019	-0,122
-446,109	800,000	0,040	-0,123
-445,095	224,498	0,093	0,109
-444,080	800,000	0,002	0,004
-443,065	224,495	0,099	-0,117
-442,051	800,000	-0,073	0,189
-441,036	46,988	-0,041	0,028
-440,022	74,634	-0,115	-0,088
-439,007	642,744	0,051	-0,095
-437,992	560,577	0,026	-0,046
-436,978	196,660	0,091	0,100
-435,963	-200,000	-0,009	-0,182
-434,949	455,797	-0,065	-0,105
-433,934	-41,415	0,038	-0,014
-432,919	119,492	0,048	-0,043
-431,905	24,778	-0,034	-0,020
-430,890	525,619	-0,066	0,113
-429,876	97,087	0,006	-0,005
-428,861	315,779	0,051	0,070
-427,846	-20,956	0,067	-0,030
-426,832	-200,000	-0,004	-0,094
-425,817	-10,548	0,055	-0,026
-424,803	754,532	0,082	-0,162
-423,788	29,137	0,078	-0,048
-422,773	-118,465	0,144	-0,018
-421,759	-89,815	0,126	0,027
-420,744	-200,000	0,007	0,054
-419,730	800,000	-0,017	0,038
-418,715	-200,000	0,005	0,022
-417,701	-93,372	-0,059	0,012
-416,686	31,877	-0,017	-0,010
-415,671	-200,000	0,019	0,124
-414,657	58,910	-0,027	-0,020
-413,642	800,000	-0,005	-0,013
-412,628	-69,170	0,124	-0,034
-411,613	800,000	0,076	-0,180
-410,598	242,623	0,052	-0,063
-409,584	213,022	-0,013	0,015
-408,569	136,011	0,076	0,071
-407,555	159,593	0,096	-0,098
-406,540	-35,005	-0,119	0,047
-405,525	251,056	-0,050	0,062
-404,511	-13,125	0,028	0,013
-403,496	31,808	-0,124	-0,077
-402,482	269,288	-0,053	0,068
-401,467	-200,000	0,018	0,064
-400,452	172,350	0,056	0,059
-399,438	75,633	0,042	-0,032
-398,423	-200,000	-0,024	0,120
-397,409	800,000	-0,043	-0,111
-396,394	-200,000	0,010	-0,059
-395,379	800,000	-0,017	0,037
-394,365	227,553	0,017	0,020
-393,350	-200,000	0,001	0,008
-392,336	74,101	0,155	-0,118
-391,321	148,604	-0,013	-0,013
-390,306	800,000	-0,048	-0,115
-389,292	-187,536	-0,110	-0,001
-388,277	30,277	0,090	0,056
-387,263	-200,000	-0,010	-0,061
-386,248	62,879	0,149	0,108
-385,233	-200,000	0,059	0,202
-384,219	-200,000	0,024	-0,098
-383,204	157,476	-0,054	0,054
-382,190	-184,948	0,049	0,001
-381,175	341,427	-0,028	0,039
-380,160	-200,000	-0,011	-0,082
-379,146	-109,215	-0,104	0,016
-378,131	247,069	0,029	-0,035
-377,117	-41,012	0,042	-0,016
-376,102	357,484	-0,049	-0,071
-375,088	5,357	0,075	0,040
-374,073	451,703	0,025	0,040
-373,058	-91,512	0,068	-0,014
-372,044	800,000	0,043	0,088
-371,029	800,000	-0,033	0,102
-370,015	-200,000	-0,004	0,076
-369,000	-174,957	-0,063	-0,001
-367,985	707,167	-0,059	-0,113
-366,971	197,615	-0,058	-0,065
-365,956	237,811	0,054	-0,065
-364,942	152,623	-0,140	0,139
-363,927	456,738	-0,014	-0,023
-362,912	255,178	0,024	0,030
-361,898	514,907	-0,051	-0,086
-360,883	800,000	-0,039	-0,100
-359,869	128,755	-0,035	-0,033
-358,854	37,118	-0,085	0,054
-357,839	-117,452	0,139	0,018
-356,825	81,195	0,087	0,068
-355,810	239,913	0,060	0,072
-354,796	398,615	-0,016	-0,024
-353,781	11,634	-0,184	-0,102
-352,766	119,632	-0,029	0,026
-351,752	26,526	-0,061	-0,037
-350,737	449,227	-0,082	0,132
-349,723	-156,820	0,071	-0,003
-348,708	800,000	-0,072	-0,163
-347,693	65,248	0,083	-0,061
-346,679	-200,000	-0,037	-0,121
-345,664	69,620	-0,081	-0,061
-344,650	198,223	0,031	0,034
-343,635	297,964	0,024	0,032
-342,620	78,632	0,081	0,062
-341,606	-121,692	0,103	0,012
-340,591	-200,000	-0,001	-0,033
-339,577	800,000	0,030	-0,068
-338,562	13,126	-0,095	-0,053
-337,548	-200,000	0,021	0,069
-336,533	-200,000	-0,012	0,042
-335,518	-200,000	-0,008	0,098
-334,504	529,817	0,045	0,077
-333,489	139,295	0,065	0,062
-332,475	800,000	-0,052	-0,120
-331,460	547,781	-0,085	-0,148
-330,445	-96,302	0,187	-0,035
-329,431	-30,364	-0,150	0,061
-328,416	60,592	-0,086	0,061
-327,402	-200,000	0,022	0,144
-326,387	36,510	-0,027	-0,017
-325,372	-13,886	-0,041	-0,019
-324,358	-38,448	-0,066	-0,025
-323,343	125,368	-0,081	0,074
-322,329	-200,000	-0,015	0,056
-321,314	-200,000	0,001	-0,012
-320,299	-9,296	0,066	0,032
-319,285	136,104	0,058	0,055
-318,270	800,000	-0,011	0,024
-317,256	75,443	-0,039	-0,029
-316,241	344,059	-0,051	0,073
-315,226	121,782	0,151	0,136
-314,212	112,295	-0,016	0,014
-313,197	201,256	0,042	0,047
-312,183	160,100	0,075	-0,076
-311,168	-172,416	0,043	-0,001
-310,153	-74,255	-0,083	-0,021
-309,139	217,581	-0,085	-0,098
-308,124	-87,226	0,064	-0,014
-307,110	-200,000	-0,022	-0,080
-306,095	67,417	0,088	0,065
-305,080	-67,183	0,022	-0,006
-304,066	-132,116	-0,075	-0,007
-303,051	-200,000	-0,020	-0,136
-302,037	-200,000	0,002	0,030
-301,022	38,393	0,099	-0,064
-300,008	-35,889	-0,020	0,008
-298,993	-200,000	-0,004	0,250
-297,978	800,000	0,055	0,116
-296,964	-95,192	-0,066	-0,013
-295,949	-200,000	-0,007	-0,085
-294,935	-127,059	-0,063	0,007
-293,920	-27,371	-0,035	0,015
-292,905	-60,670	-0,085	-0,026
-291,891	-47,166	-0,057	0,020
-290,876	123,933	0,032	-0,029
-289,862	-74,165	-0,138	0,036
-288,847	-38,599	-0,101	0,039
-287,832	434,921	0,038	-0,061
-286,818	328,035	0,115	0,160
-285,803	504,348	-0,048	0,080
-284,789	22,653	0,048	0,029
-283,774	227,477	-0,090	0,106
-282,759	-28,786	0,074	-0,031
-281,745	-91,968	0,139	0,028
-280,730	800,000	-0,026	0,074
-279,716	-200,000	-0,034	0,137
-278,701	-107,203	0,123	0,019
-277,686	33,363	0,093	0,058
-276,672	-116,234	-0,111	0,015
-275,657	-200,000	0,018	0,070
-274,643	-120,520	-0,070	-0,009
-273,628	-200,000	-0,034	-0,127
-272,613	-118,852	-0,131	-0,016
-271,599	161,262	0,102	0,103
-270,584	-37,502	0,029	0,011
-269,570	-57,240	0,070	0,022
-268,555	-200,000	-0,015	0,054
-267,540	800,000	0,089	-0,197
-266,526	73,250	-0,126	0,095
-265,511	-62,155	-0,091	0,027
-264,497	-19,693	0,055	0,025
-263,482	67,823	-0,132	0,098
-262,467	129,430	0,095	-0,088
-261,453	800,000	-0,055	-0,128
-260,438	-200,000	0,006	-0,089
-259,424	-105,420	-0,077	0,012
-258,409	-200,000	0,005	-0,033
-257,395	-101,235	-0,103	0,018
-256,380	20,768	-0,059	0,035
-255,365	800,000	0,060	0,158
-254,351	-200,000	-0,007	-0,128
-253,336	73,352	-0,103	-0,077
-252,322	100,312	-0,082	-0,069
-251,307	342,934	0,062	-0,088
-250,292	-84,197	0,067	0,015
-249,278	-200,000	-0,004	-0,150
-248,263	-47,106	0,040	-0,014
-247,249	135,674	0,060	0,057
-246,234	-71,078	0,061	-0,016
-245,219	529,989	-0,098	-0,169
-244,205	-134,768	-0,116	-0,010
-243,190	477,765	-0,069	-0,114
-242,176	333,243	0,115	0,161
-241,161	800,000	-0,041	-0,129
-240,146	221,418	0,086	0,100
-239,132	-200,000	-0,012	-0,056
-238,117	-200,000	0,004	0,046
-237,103	800,000	-0,109	-0,259
-236,088	-200,000	0,035	-0,141
-235,073	-138,957	0,125	0,010
-234,059	-68,233	-0,132	0,037
-233,044	-200,000	-0,012	-0,103
-232,030	-49,822	0,078	0,026
-231,015	517,988	-0,043	0,072
-230,000	91,682	-0,051	-0,041
-228,986	161,133	-0,019	0,019
-227,971	19,464	-0,050	-0,029
-226,957	102,349	-0,039	0,033
-225,942	800,000	0,064	0,178
-224,927	39,287	-0,048	0,031
-223,913	207,034	-0,063	-0,071
-222,898	-200,000	-0,031	-0,151
-221,884	-64,746	0,054	0,016
-220,869	-200,000	-0,011	0,088
-219,855	-197,683	0,052	0,000
-218,840	-200,000	-0,061	0,257
-217,825	113,013	0,055	0,048
-216,811	800,000	0,050	-0,122
-215,796	127,596	-0,106	-0,097
-214,782	-200,000	-0,025	-0,109
-213,767	-200,000	-0,004	-0,116
-212,752	6,360	0,106	0,057
-211,738	-95,271	0,080	-0,015
-210,723	-81,044	0,095	-0,022
-209,709	-86,596	-0,128	-0,028
-208,694	337,864	-0,030	0,042
-207,679	-200,000	-0,037	-0,228
-206,665	800,000	-0,024	0,061
-205,650	103,086	0,101	-0,085
-204,636	-200,000	-0,007	0,154
-203,621	-49,593	-0,085	-0,029
-202,606	-200,000	-0,014	0,089
-201,592	48,406	-0,067	0,045
-200,577	224,874	-0,079	0,092
-199,563	800,000	-0,043	0,098
-198,548	601,073	0,062	0,112
-197,533	800,000	-0,012	-0,038
-196,519	-200,000	0,006	-0,068
-195,504	800,000	-0,053	-0,155
-194,490	-200,000	-0,009	-0,037
-193,475	-71,758	-0,078	-0,021
-192,460	800,000	-0,038	0,112
-191,446	-200,000	-0,020	-0,064
-190,431	-74,489	0,068	0,018
-189,417	-42,588	-0,141	0,052
-188,402	-94,319	-0,038	0,007
-187,387	7,961	-0,040	0,021
-186,373	800,000	-0,022	-0,061
-185,358	138,601	-0,067	0,063
-184,344	-168,877	0,079	0,002
-183,329	571,128	-0,045	0,079
-182,315	305,147	0,116	0,155
-181,300	48,609	0,027	-0,018
-180,285	143,286	0,080	0,077
-179,271	-24,840	-0,039	-0,017
-178,256	-200,000	0,023	0,084
-177,242	-92,693	-0,088	0,018
-176,227	504,479	0,039	-0,066
-175,212	-200,000	-0,020	0,111
-174,198	135,460	-0,017	-0,016
-173,183	188,002	-0,030	-0,032
-172,169	128,073	-0,046	-0,043
-171,154	-115,013	-0,034	-0,005
-170,139	211,857	-0,129	0,147
-169,125	800,000	-0,051	0,156
-168,110	800,000	-0,036	0,094
-167,096	533,549	-0,005	0,008
-166,081	222,029	0,036	-0,042
-165,066	236,548	-0,028	-0,034
-164,052	-72,363	0,076	-0,020
-163,037	-69,766	0,034	0,009
-162,023	168,611	0,034	0,035
-161,008	-136,652	0,051	0,004
-159,993	-200,000	0,015	0,099
-158,979	316,667	0,093	-0,127
-157,964	420,925	0,025	-0,039
-156,950	-200,000	0,032	0,138
-155,935	-116,451	0,086	0,011
-154,920	-200,000	-0,023	-0,096
-153,906	-9,965	-0,084	-0,040
-152,891	800,000	-0,033	0,068
-151,877	588,976	0,014	0,024
-150,862	-63,807	-0,084	0,025
-149,847	-200,000	-0,052	0,171
-148,833	77,053	-0,045	0,035
-147,818	-21,492	0,083	-0,036
-146,804	179,593	0,060	0,063
-145,789	-200,000	0,026	0,159
-144,775	41,490	-0,042	0,028
-143,760	-200,000	-0,004	-0,104
-142,745	-200,000	-0,005	-0,026
-141,731	177,247	0,037	0,039
-140,716	10,884	-0,029	-0,016
-139,702	-91,851	0,049	-0,010
-138,687	-141,976	0,145	0,010
-137,672	-89,092	-0,122	0,026
-136,658	-116,551	0,075	0,010
-135,643	115,391	0,020	0,018
-134,629	45,233	0,115	-0,076
-133,614	-139,077	-0,029	-0,002
-132,599	800,000	0,055	0,134
-131,585	-86,772	0,098	0,021
-130,570	-44,413	0,133	0,047
-129,556	-200,000	-0,011	0,069
-128,541	-200,000	0,019	-0,147
-127,526	-200,000	0,011	-0,101
-126,512	152,429	0,124	-0,122
-125,497	-67,083	0,014	-0,004
-124,483	225,827	0,069	0,080
-123,468	87,911	-0,054	0,043
-122,453	800,000	-0,029	0,059
-121,439	516,307	-0,019	0,033
-120,424	81,960	-0,076	-0,059
