DTS Sentinel unit serial number:	SN410029Multiplexer serial number:	ORYXHardware model number:	OX2-SRSoftware version number:	ORYX F/W v4,00 Oryx Data Collector v3.7.2.0data status	okinstallation	B6 Nyhavnadifferential loss correction	single-endedforward channel	channel 2reverse channel	N/Adate	2023/12/10time	03:55:08forward acquisition time	300,00reverse acquisition time	0,00gamma	499,1914k internal	0,3125k external	0,3125temperature offset calibration	1,0000default loss term (dB/km)	0,3820temperature slope calibration	1,0000multiplexer offset coefficient	1,0000multiplexer slope coefficient	1,0000fibre end	0,00T internal ref (°C)	22,07T ext. ref 1 (°C)	6,05T ext. ref 2 (°C)	6,02length (m)	temperature (°C)	Stokes	anti-Stokes-744,400	121,003	0,109	-0,101
-743,385	-10,098	-0,227	0,112
-742,371	-117,929	0,074	-0,010
-741,356	-27,752	-0,277	0,119
-740,342	269,277	-0,079	-0,104
-739,327	60,362	-0,236	0,174
-738,312	-200,000	0,006	-0,078
-737,298	-66,994	-0,378	0,110
-736,283	-80,063	-0,061	-0,015
-735,269	800,000	-0,112	0,263
-734,254	-200,000	-0,007	-0,099
-733,239	-106,712	-0,366	-0,060
-732,225	79,831	0,135	0,108
-731,210	498,889	0,036	0,061
-730,196	188,447	-0,027	-0,030
-729,181	8,736	-0,104	0,058
-728,167	-114,727	-0,009	-0,001
-727,152	-200,000	-0,010	0,051
-726,137	784,058	-0,067	-0,138
-725,123	74,229	-0,040	0,031
-724,108	-200,000	-0,033	0,128
-723,094	264,662	-0,053	-0,069
-722,079	-92,501	-0,138	-0,029
-721,064	162,425	0,044	-0,046
-720,050	-0,796	0,090	0,047
-719,035	800,000	0,002	0,007
-718,021	800,000	-0,068	-0,148
-717,006	163,971	-0,053	0,055
-715,991	-39,968	-0,210	-0,081
-714,977	-200,000	0,024	-0,114
-713,962	90,398	0,019	-0,016
-712,948	548,970	-0,069	0,124
-711,933	240,521	0,011	-0,014
-710,918	35,052	0,103	-0,067
-709,904	477,010	-0,033	-0,055
-708,889	800,000	-0,118	-0,251
-707,875	-94,890	0,068	0,014
-706,860	115,406	0,076	-0,069
-705,845	-86,209	0,023	0,005
-704,831	11,349	0,080	0,046
-703,816	-200,000	-0,016	-0,052
-702,802	-200,000	-0,007	-0,064
-701,787	800,000	0,016	-0,036
-700,772	29,469	-0,060	-0,038
-699,758	-161,760	-0,102	0,004
-698,743	264,030	-0,035	0,045
-697,729	-61,279	0,088	-0,027
-696,714	-27,724	0,022	-0,009
-695,699	36,257	-0,089	-0,058
-694,685	-3,968	-0,127	-0,065
-693,670	-37,846	-0,114	-0,045
-692,656	800,000	-0,018	-0,042
-691,641	-200,000	-0,000	-0,056
-690,627	-200,000	0,021	0,121
-689,612	800,000	-0,026	-0,054
-688,597	68,133	-0,076	-0,058
-687,583	-154,174	-0,120	0,006
-686,568	125,642	-0,073	0,068
-685,554	800,000	0,018	-0,038
-684,539	-69,857	-0,094	0,026
-683,524	-32,908	0,094	0,039
-682,510	55,502	-0,075	0,054
-681,495	-200,000	0,014	0,097
-680,481	86,268	0,026	0,021
-679,466	58,530	0,052	-0,038
-678,451	-57,232	-0,085	-0,028
-677,437	144,159	-0,073	-0,073
-676,422	338,392	-0,076	0,110
-675,408	-129,312	-0,090	0,009
-674,393	-57,490	-0,080	0,026
-673,378	-17,316	-0,101	-0,047
-672,364	617,208	0,056	0,105
-671,349	227,537	-0,034	-0,041
-670,335	-200,000	0,004	0,080
-669,320	61,997	-0,053	-0,039
-668,305	800,000	0,029	-0,068
-667,291	227,720	-0,113	-0,137
-666,276	18,379	0,039	-0,023
-665,262	20,726	-0,148	-0,089
-664,247	-37,416	-0,073	0,029
-663,232	462,336	0,051	-0,086
-662,218	-200,000	0,074	-0,000
-661,203	731,217	0,050	-0,099
-660,189	0,801	-0,025	0,013
-659,174	-95,964	0,064	0,013
-658,159	111,366	-0,063	0,056
-657,145	176,620	-0,057	0,062
-656,130	-87,412	0,058	-0,013
-655,116	23,847	0,156	0,095
-654,101	800,000	-0,008	-0,025
-653,086	76,061	-0,125	-0,098
-652,072	137,429	-0,108	0,105
-651,057	237,902	0,083	-0,102
-650,043	-7,936	-0,101	0,051
-649,028	731,567	-0,033	-0,066
-648,014	-117,957	-0,041	0,005
-646,999	-88,605	-0,033	0,007
-645,984	52,368	-0,086	-0,061
-644,970	59,610	0,063	-0,046
-643,955	-200,000	-0,016	-0,115
-642,941	800,000	-0,045	-0,106
-641,926	319,931	-0,041	0,057
-640,911	216,933	-0,048	-0,057
-639,897	-121,677	-0,044	0,005
-638,882	800,000	0,069	-0,163
-637,868	228,142	0,066	0,080
-636,853	92,677	-0,098	-0,082
-635,838	167,895	-0,044	-0,047
-634,824	280,669	0,126	-0,168
-633,809	83,669	0,079	0,064
-632,795	254,007	-0,037	-0,046
-631,780	120,546	0,043	0,039
-630,765	-94,221	-0,098	0,020
-629,751	800,000	-0,067	-0,167
-628,736	-105,963	-0,098	-0,016
-627,722	685,159	-0,137	-0,266
-626,707	-200,000	0,015	0,120
-625,692	252,651	0,023	0,029
-624,678	150,141	-0,029	0,029
-623,663	-200,000	0,008	-0,100
-622,649	-200,000	-0,009	0,067
-621,634	-60,385	-0,109	0,034
-620,619	-76,008	-0,130	-0,034
-619,605	-84,137	0,235	-0,055
-618,590	-77,399	0,067	-0,017
-617,576	-52,738	-0,079	0,027
-616,561	780,121	0,039	-0,079
-615,546	757,843	-0,087	-0,175
-614,532	-200,000	-0,015	-0,080
-613,517	596,621	-0,078	-0,144
-612,503	350,444	-0,065	-0,095
-611,488	21,865	0,034	-0,020
-610,474	275,680	0,116	0,153
-609,459	314,940	0,033	-0,046
-608,444	-60,311	0,073	0,023
-607,430	-57,300	0,043	0,014
-606,415	-114,769	0,046	0,006
-605,401	167,733	0,038	0,040
-604,386	37,107	0,071	-0,046
-603,371	629,384	0,064	0,121
-602,357	-158,428	-0,023	-0,001
-601,342	-114,870	-0,058	0,008
-600,328	-14,584	-0,073	-0,035
-599,313	800,000	-0,019	-0,062
-598,298	-104,705	0,033	0,006
-597,284	-165,344	0,039	-0,001
-596,269	800,000	0,012	0,029
-595,255	-76,377	-0,071	-0,018
-594,240	-200,000	-0,014	-0,068
-593,225	800,000	0,016	-0,043
-592,211	800,000	-0,055	-0,125
-591,196	800,000	0,034	-0,105
-590,182	-109,169	0,030	-0,005
-589,167	-4,784	-0,115	0,059
-588,152	-200,000	0,006	0,045
-587,138	-157,630	-0,056	0,002
-586,123	154,978	-0,118	-0,120
-585,109	221,425	-0,035	0,041
-584,094	169,424	-0,107	0,113
-583,079	158,109	0,012	0,012
-582,065	741,743	0,040	-0,080
-581,050	128,860	0,009	-0,009
-580,036	171,420	-0,102	0,108
-579,021	222,483	-0,080	-0,096
-578,006	-47,372	0,049	0,018
-576,992	55,240	0,053	0,038
-575,977	-180,785	0,065	-0,001
-574,963	168,387	-0,069	-0,073
-573,948	800,000	0,007	0,023
-572,934	800,000	0,066	0,174
-571,919	619,547	-0,074	-0,139
-570,904	-31,925	-0,157	-0,065
-569,890	-200,000	0,004	0,027
-568,875	-96,461	0,100	-0,019
-567,861	-76,270	-0,105	0,027
-566,846	-200,000	0,019	0,082
-565,831	108,615	0,037	-0,033
-564,817	-200,000	-0,001	-0,091
-563,802	59,808	0,086	-0,062
-562,788	32,219	-0,052	-0,033
-561,773	101,312	0,088	0,076
-560,758	252,618	0,087	0,110
-559,744	-200,000	0,016	0,068
-558,729	6,396	0,080	0,044
-557,715	746,041	-0,020	-0,041
-556,700	85,661	-0,049	-0,040
-555,685	-200,000	0,035	0,000
-554,671	119,424	-0,081	0,074
-553,656	-28,625	0,083	0,035
-552,642	800,000	0,035	-0,076
-551,627	15,376	0,119	0,069
-550,612	-159,521	0,100	0,004
-549,598	18,377	-0,044	0,026
-548,583	68,686	-0,064	0,048
-547,569	800,000	0,056	-0,151
-546,554	3,014	-0,085	0,046
-545,539	-76,321	0,137	-0,036
-544,525	-85,419	-0,086	0,020
-543,510	90,054	0,092	-0,076
-542,496	800,000	-0,033	-0,080
-541,481	-200,000	0,012	-0,116
-540,466	800,000	0,040	-0,094
-539,452	-47,843	0,030	0,011
-538,437	800,000	0,018	0,057
-537,423	-200,000	0,021	0,149
-536,408	768,449	0,034	0,069
-535,393	9,824	-0,186	-0,104
-534,379	339,602	0,043	0,063
-533,364	-200,000	-0,006	0,022
-532,350	-200,000	0,015	-0,073
-531,335	-200,000	0,013	0,055
-530,321	-200,000	-0,014	0,067
-529,306	35,182	-0,072	-0,047
-528,291	-96,885	-0,077	-0,015
-527,277	-200,000	-0,017	-0,069
-526,262	643,277	-0,033	-0,063
-525,248	-11,588	0,071	0,034
-524,233	97,057	-0,039	0,033
-523,218	-200,000	-0,015	0,051
-522,204	-93,620	-0,036	-0,007
-521,189	126,059	-0,044	0,041
-520,175	3,331	0,094	-0,050
-519,160	-200,000	0,016	0,063
-518,145	800,000	0,060	-0,147
-517,131	-5,487	0,006	0,003
-516,116	800,000	-0,015	-0,032
-515,102	-50,620	0,085	-0,030
-514,087	800,000	0,047	-0,132
-513,072	-64,679	-0,132	-0,039
-512,058	-19,198	-0,103	-0,047
-511,043	-200,000	-0,007	-0,021
-510,029	51,582	-0,022	-0,015
-509,014	-70,591	-0,103	0,029
-507,999	-200,000	0,002	-0,034
-506,985	-78,692	-0,022	-0,006
-505,970	800,000	-0,014	-0,033
-504,956	120,683	0,060	0,055
-503,941	-119,747	0,038	0,005
-502,926	61,677	-0,039	0,029
-501,912	800,000	0,008	-0,023
-500,897	30,826	0,040	-0,025
-499,883	498,881	-0,044	0,075
-498,868	-200,000	0,036	-0,266
-497,853	800,000	-0,071	-0,150
-496,839	373,681	0,035	-0,053
-495,824	-200,000	-0,015	-0,073
-494,810	242,134	-0,032	-0,040
-493,795	-200,000	-0,013	0,059
-492,781	249,672	-0,071	-0,089
-491,766	331,544	0,126	-0,180
-490,751	-61,897	-0,174	0,053
-489,737	-25,821	0,070	0,030
-488,722	49,125	0,080	0,055
-487,708	-200,000	-0,017	0,157
-486,693	-102,117	-0,124	0,022
-485,678	631,661	0,046	-0,087
-484,664	252,869	-0,084	0,105
-483,649	164,783	0,047	-0,049
-482,635	-200,000	-0,026	-0,130
-481,620	-152,027	0,061	-0,003
-480,605	99,882	0,015	0,013
-479,591	-23,612	0,055	0,024
-478,576	-30,117	-0,057	-0,024
-477,562	-102,691	-0,045	0,008
-476,547	64,013	-0,065	-0,048
-475,532	-27,152	0,059	0,025
-474,518	-200,000	0,005	-0,050
-473,503	257,778	0,100	0,127
-472,489	-200,000	0,043	0,000
-471,474	-19,697	0,081	-0,037
-470,459	-101,124	-0,112	0,020
-469,445	292,737	0,054	-0,072
-468,430	-79,416	-0,092	0,023
-467,416	119,132	0,052	-0,048
-466,401	62,150	0,021	0,016
-465,386	-91,692	0,159	0,033
-464,372	800,000	-0,054	0,157
-463,357	-121,325	-0,121	0,015
-462,343	-200,000	-0,002	-0,024
-461,328	-200,000	-0,004	-0,055
-460,313	800,000	0,052	0,144
-459,299	124,976	0,015	-0,014
-458,284	800,000	0,023	0,049
-457,270	-200,000	0,023	0,111
-456,255	202,164	-0,072	0,082
-455,241	201,795	-0,124	-0,141
-454,226	-200,000	0,005	0,022
-453,211	800,000	-0,014	-0,042
-452,197	-200,000	0,009	0,068
-451,182	800,000	-0,038	0,114
-450,168	73,291	0,049	0,037
-449,153	-200,000	0,016	0,119
-448,138	-69,380	-0,035	-0,010
-447,124	29,094	-0,166	0,103
-446,109	-200,000	-0,005	0,048
-445,095	109,314	0,060	0,053
-444,080	-47,968	0,125	0,044
-443,065	569,574	-0,015	0,028
-442,051	-56,419	0,124	0,040
-441,036	211,605	0,036	0,042
-440,022	-200,000	-0,007	-0,195
-439,007	-22,945	-0,076	0,034
-437,992	209,208	0,070	-0,081
-436,978	800,000	-0,027	-0,074
-435,963	571,348	-0,022	0,039
-434,949	77,016	0,068	0,053
-433,934	-62,235	-0,040	-0,012
-432,919	-200,000	0,000	-0,158
-431,905	388,225	-0,037	-0,056
-430,890	800,000	-0,037	-0,081
-429,876	-2,773	0,078	0,040
-428,861	-42,696	-0,057	0,021
-427,846	-40,844	0,073	-0,028
-426,832	478,201	-0,042	-0,070
-425,817	41,086	-0,126	0,084
-424,803	141,514	-0,094	-0,091
-423,788	-181,245	0,128	-0,002
-422,773	800,000	0,061	0,157
-421,759	104,970	-0,021	0,018
-420,744	84,946	0,056	0,045
-419,730	95,336	-0,074	-0,062
-418,715	426,053	-0,023	0,036
-417,701	-200,000	-0,006	-0,095
-416,686	-200,000	0,015	0,151
-415,671	-172,544	0,043	0,001
-414,657	361,169	-0,060	0,088
-413,642	56,645	-0,075	0,054
-412,628	453,305	-0,001	-0,002
-411,613	13,862	-0,130	-0,074
-410,598	-151,574	0,106	-0,006
-409,584	800,000	0,062	0,181
-408,569	-200,000	-0,005	0,104
-407,555	800,000	-0,036	0,111
-406,540	-101,690	-0,068	-0,012
-405,525	-200,000	-0,027	-0,095
-404,511	-200,000	-0,002	-0,046
-403,496	-51,632	0,052	-0,018
-402,482	-47,083	-0,070	-0,025
-401,467	211,105	-0,039	-0,045
-400,452	-110,520	-0,053	0,008
-399,438	-170,751	-0,056	-0,001
-398,423	-200,000	0,001	0,013
-397,409	35,431	0,091	0,058
-396,394	108,223	0,070	0,061
-395,379	7,724	-0,176	0,097
-394,365	540,051	0,019	0,034
-393,350	-58,225	-0,207	0,066
-392,336	79,748	0,167	0,132
-391,321	-200,000	-0,022	-0,078
-390,306	-106,084	0,239	0,039
-389,292	-119,116	0,120	0,015
-388,277	-147,701	-0,074	0,004
-387,263	-147,122	0,033	0,002
-386,248	221,722	-0,075	-0,089
-385,233	-200,000	-0,002	-0,028
-384,219	104,609	0,128	0,111
-383,204	90,878	-0,037	0,030
-382,190	-117,198	-0,229	0,030
-381,175	800,000	0,046	0,134
-380,160	-200,000	0,129	0,000
-379,146	-200,000	-0,006	-0,028
-378,131	-81,375	0,074	0,018
-377,117	-200,000	-0,155	0,000
-376,102	-200,000	-0,022	-0,112
-375,088	-139,700	0,119	-0,009
-374,073	800,000	-0,017	-0,041
-373,058	-146,128	0,014	0,001
-372,044	-200,000	0,009	0,150
-371,029	349,602	-0,046	0,067
-370,015	-200,000	-0,019	0,121
-369,000	56,397	-0,046	0,033
-367,985	58,397	0,071	-0,051
-366,971	-194,517	-0,131	-0,001
-365,956	-12,203	0,081	-0,039
-364,942	166,129	0,087	0,090
-363,927	-200,000	0,010	0,175
-362,912	-200,000	-0,010	0,073
-361,898	-23,481	0,114	0,050
-360,883	-98,467	-0,091	-0,017
-359,869	260,695	-0,112	-0,143
-358,854	76,483	-0,070	-0,054
-357,839	-63,690	0,028	0,008
-356,825	12,597	0,153	-0,087
-355,810	-77,287	-0,131	-0,033
-354,796	-105,174	0,021	0,003
-353,781	30,300	0,060	-0,037
-352,766	-109,397	-0,151	-0,023
-351,752	-200,000	-0,014	0,092
-350,737	-19,962	0,144	0,065
-349,723	-1,340	0,091	0,047
-348,708	-107,616	-0,089	-0,014
-347,693	414,799	0,025	-0,039
-346,679	-23,650	-0,120	-0,052
-345,664	46,219	0,086	0,058
-344,650	363,403	0,059	0,087
-343,635	-104,951	0,052	-0,009
-342,620	-83,522	0,112	0,026
-341,606	76,834	-0,126	-0,098
-340,591	64,788	-0,026	0,019
-339,577	-115,462	-0,101	-0,014
-338,562	-64,752	-0,070	0,021
-337,548	-29,617	-0,053	0,022
-336,533	279,686	0,091	-0,119
-335,518	-200,000	-0,001	0,100
-334,504	-158,330	0,073	0,003
-333,489	294,204	0,065	-0,088
-332,475	-75,372	-0,032	0,008
-331,460	260,434	-0,066	-0,083
-330,445	123,540	-0,123	-0,113
-329,431	-200,000	0,007	0,037
-328,416	1,243	-0,040	-0,021
-327,402	-68,074	0,087	-0,025
-326,387	-29,031	0,182	0,076
-325,372	86,703	0,052	0,042
-324,358	-200,000	-0,000	-0,015
-323,343	-200,000	0,011	-0,077
-322,329	-14,370	0,166	-0,078
-321,314	191,122	-0,059	0,065
-320,299	-200,000	0,012	-0,072
-319,285	-70,190	0,105	0,029
-318,270	307,666	-0,025	-0,034
-317,256	-200,000	0,031	-0,194
-316,241	-200,000	-0,003	-0,138
-315,226	-200,000	0,001	-0,070
-314,212	-200,000	0,036	0,181
-313,197	85,921	-0,067	-0,054
-312,183	554,532	-0,025	0,044
-311,168	52,137	-0,051	0,035
-310,153	-5,054	-0,118	-0,059
-309,139	131,151	-0,060	-0,057
-308,124	-75,513	-0,063	-0,016
-307,110	800,000	0,007	-0,018
-306,095	466,568	0,012	-0,020
-305,080	624,364	-0,010	-0,019
-304,066	240,217	0,105	0,128
-303,051	6,696	-0,096	-0,052
-302,037	-153,152	-0,167	0,008
-301,022	-109,010	0,160	0,025
-300,008	707,175	0,051	0,100
-298,993	171,686	0,121	0,128
-297,978	-34,515	0,094	-0,037
-296,964	-200,000	-0,023	-0,169
-295,949	407,101	-0,050	-0,077
-294,935	800,000	-0,036	-0,104
-293,920	-200,000	-0,019	0,109
-292,905	800,000	-0,030	0,073
-291,891	-20,295	-0,123	0,055
-290,876	-200,000	0,014	0,072
-289,862	80,367	0,110	-0,086
-288,847	629,964	0,081	-0,151
-287,832	70,277	0,090	0,068
-286,818	-200,000	0,016	0,064
-285,803	-44,578	0,048	0,018
-284,789	-47,812	0,110	0,039
-283,774	800,000	0,045	-0,099
-282,759	-200,000	-0,005	-0,069
-281,745	-147,920	-0,124	0,007
-280,730	74,453	-0,051	-0,039
-279,716	-200,000	-0,011	-0,038
-278,701	-83,325	-0,093	0,022
-277,686	800,000	-0,012	0,031
-276,672	32,162	0,040	0,025
-275,657	314,524	0,097	-0,134
-274,643	-0,308	-0,144	-0,075
-273,628	154,356	0,028	-0,028
-272,613	154,941	-0,031	0,031
-271,599	3,162	0,113	0,060
-270,584	-43,731	0,133	0,049
-269,570	-139,036	0,158	0,012
-268,555	18,009	0,045	0,026
-267,540	-82,358	0,085	-0,020
-266,526	115,091	0,055	-0,049
-265,511	1,273	-0,081	-0,042
-264,497	533,960	0,100	0,173
-263,482	-72,111	0,029	-0,008
-262,467	-93,009	0,066	0,013
-261,453	23,864	0,080	-0,048
-260,438	-41,847	-0,059	0,022
-259,424	-200,000	-0,013	0,073
-258,409	419,426	0,057	-0,090
-257,395	-76,711	0,139	-0,035
-256,380	410,082	0,009	-0,014
-255,365	130,611	0,065	0,061
-254,351	696,826	0,098	0,189
-253,336	-200,000	0,023	0,166
-252,322	195,398	-0,104	-0,116
-251,307	-200,000	0,007	0,056
-250,292	-54,193	0,071	-0,023
-249,278	103,659	0,023	0,020
-248,263	800,000	-0,038	0,103
-247,249	-200,000	0,005	0,019
-246,234	23,361	-0,036	-0,022
-245,219	23,304	-0,027	0,016
-244,205	-200,000	-0,019	-0,069
-243,190	-200,000	-0,000	0,034
-242,176	-57,732	0,075	0,024
-241,161	-29,584	0,070	0,029
-240,146	92,258	0,024	0,020
-239,132	-200,000	-0,006	-0,056
-238,117	800,000	-0,012	-0,025
-237,103	320,335	-0,079	-0,109
-236,088	-57,235	-0,160	0,051
-235,073	-200,000	0,033	0,130
-234,059	800,000	-0,042	0,107
-233,044	800,000	0,053	-0,162
-232,030	-200,000	-0,018	-0,094
-231,015	764,374	0,033	0,065
-230,000	63,798	-0,043	0,031
-228,986	344,978	-0,016	0,023
-227,971	140,961	0,050	-0,048
-226,957	-166,891	0,129	0,004
-225,942	800,000	0,052	0,162
-224,927	134,669	0,022	0,021
-223,913	21,364	-0,116	0,069
-222,898	800,000	0,010	0,024
-221,884	-127,406	0,188	0,020
-220,869	-62,004	-0,058	0,018
-219,855	800,000	-0,035	0,078
-218,840	-200,000	-0,063	0,244
-217,825	346,691	-0,027	-0,040
-216,811	800,000	0,033	-0,075
-215,796	-200,000	-0,004	-0,019
-214,782	-100,953	0,058	0,010
-213,767	800,000	-0,039	-0,116
-212,752	-104,562	-0,071	0,012
-211,738	800,000	-0,030	0,090
-210,723	-141,739	0,111	-0,008
-209,709	-41,141	-0,074	0,028
-208,694	154,016	-0,141	-0,141
-207,679	-150,695	-0,059	-0,003
-206,665	-200,000	-0,040	0,146
-205,650	-200,000	0,012	0,243
-204,636	70,416	0,203	0,153
-203,621	-10,732	-0,047	0,023
-202,606	-200,000	0,031	-0,130
-201,592	-86,346	-0,071	-0,016
-200,577	-170,070	-0,072	-0,002
-199,563	429,082	0,030	-0,047
-198,548	-200,000	-0,011	0,224
-197,533	-64,752	0,069	0,020
-196,519	-200,000	-0,015	-0,099
-195,504	407,555	-0,087	-0,134
-194,490	-20,773	-0,092	-0,041
-193,475	-91,686	0,074	0,015
-192,460	-3,382	0,073	-0,037
-191,446	355,535	-0,060	0,088
-190,431	360,805	-0,023	-0,034
-189,417	-200,000	-0,014	0,094
-188,402	300,528	-0,078	-0,105
-187,387	-200,000	-0,008	-0,028
-186,373	473,573	-0,042	-0,069
-185,358	99,979	0,107	-0,091
-184,344	800,000	-0,050	-0,121
-183,329	469,547	-0,031	0,050
-182,315	-31,502	0,154	0,063
-181,300	800,000	-0,048	-0,154
-180,285	671,594	0,047	-0,088
-179,271	-82,623	-0,093	0,022
-178,256	800,000	-0,018	0,042
-177,242	-156,596	0,028	-0,001
-176,227	250,976	0,110	0,136
-175,212	800,000	0,050	0,111
-174,198	-107,967	0,076	-0,012
-173,183	800,000	0,030	-0,069
-172,169	3,985	-0,043	0,023
-171,154	390,485	-0,114	0,173
-170,139	-200,000	0,027	0,167
-169,125	241,385	0,047	0,057
-168,110	261,405	-0,051	-0,065
-167,096	-96,290	-0,121	-0,023
-166,081	313,300	0,072	-0,099
-165,066	455,010	0,053	-0,087
-164,052	40,796	-0,070	0,046
-163,037	-19,457	0,077	-0,035
-162,023	-200,000	-0,022	0,091
-161,008	590,345	0,039	-0,070
-159,993	-119,404	-0,141	-0,018
-158,979	74,902	-0,127	0,097
-157,964	800,000	0,018	0,046
-156,950	-162,016	-0,062	-0,002
-155,935	-33,065	0,057	-0,023
-154,920	800,000	0,056	0,114
-153,906	-200,000	-0,025	0,128
-152,891	800,000	0,052	0,114
-151,877	-200,000	-0,043	-0,144
-150,862	14,725	-0,015	0,009
-149,847	642,503	0,026	0,049
-148,833	60,444	-0,102	0,073
-147,818	-37,563	-0,092	0,036
-146,804	-200,000	0,051	0,207
-145,789	-200,000	-0,036	0,150
-144,775	-157,078	-0,125	0,005
-143,760	-161,047	-0,023	-0,001
-142,745	800,000	0,027	-0,074
-141,731	-19,437	0,125	-0,056
-140,716	-200,000	-0,010	0,168
-139,702	48,306	-0,117	-0,079
-138,687	-85,900	0,065	0,015
-137,672	800,000	-0,046	0,104
-136,658	-21,395	0,092	-0,041
-135,643	-17,434	-0,038	0,017
-134,629	443,747	-0,111	-0,178
-133,614	2,105	0,114	-0,060
-132,599	4,568	0,095	-0,051
-131,585	-22,135	0,021	0,009
-130,570	-32,873	0,058	0,023
-129,556	-62,720	0,083	0,025
-128,541	-200,000	0,013	-0,146
-127,526	-200,000	0,014	-0,126
-126,512	212,875	-0,024	0,028
-125,497	-200,000	-0,006	-0,090
-124,483	492,750	0,044	0,074
-123,468	800,000	-0,005	-0,013
-122,453	-60,454	-0,054	-0,017
-121,439	-200,000	-0,021	-0,078
-120,424	-24,236	-0,021	0,009
-119,410	-178,820	0,093	-0,001
-118,395	147,136	-0,082	0,081
