DTS Sentinel unit serial number:	SN410029Multiplexer serial number:	ORYXHardware model number:	OX2-SRSoftware version number:	ORYX F/W v4,00 Oryx Data Collector v3.7.2.0data status	okinstallation	B6 Nyhavnadifferential loss correction	single-endedforward channel	channel 2reverse channel	N/Adate	2023/12/10time	08:35:08forward acquisition time	300,00reverse acquisition time	0,00gamma	499,1914k internal	0,3123k external	0,3123temperature offset calibration	1,0000default loss term (dB/km)	0,3820temperature slope calibration	1,0000multiplexer offset coefficient	1,0000multiplexer slope coefficient	1,0000fibre end	0,00T internal ref (°C)	22,56T ext. ref 1 (°C)	6,32T ext. ref 2 (°C)	6,34length (m)	temperature (°C)	Stokes	anti-Stokes-744,400	600,996	0,070	-0,130
-743,385	-92,968	-0,230	0,047
-742,371	-200,000	0,007	0,130
-741,356	244,367	-0,070	0,088
-740,342	617,214	0,011	-0,021
-739,327	-5,365	-0,200	0,102
-738,312	442,306	-0,086	-0,142
-737,298	-145,680	-0,149	-0,010
-736,283	-12,914	0,210	-0,101
-735,269	106,510	-0,169	0,149
-734,254	-25,591	0,003	0,001
-733,239	-143,105	-0,411	-0,029
-732,225	156,301	0,104	-0,107
-731,210	-122,804	0,091	0,011
-730,196	201,450	-0,032	-0,037
-729,181	78,047	-0,041	0,032
-728,167	-200,000	0,016	0,147
-727,152	-96,372	-0,113	0,022
-726,137	-200,000	-0,009	-0,050
-725,123	800,000	-0,066	-0,142
-724,108	-65,961	-0,065	-0,019
-723,094	-49,664	-0,182	0,064
-722,079	142,976	-0,075	-0,075
-721,064	-25,247	-0,048	0,021
-720,050	-42,696	-0,148	-0,056
-719,035	330,172	-0,030	-0,042
-718,021	800,000	-0,063	-0,166
-717,006	146,630	-0,070	-0,070
-715,991	356,047	0,050	0,074
-714,977	-93,092	-0,014	0,003
-713,962	208,267	0,078	0,091
-712,948	115,902	0,042	0,039
-711,933	-164,278	-0,055	-0,002
-710,918	-63,033	-0,081	0,025
-709,904	-44,106	-0,111	0,041
-708,889	-45,307	-0,052	0,019
-707,875	-200,000	0,003	-0,050
-706,860	800,000	-0,023	-0,055
-705,845	-46,309	0,183	0,067
-704,831	608,885	-0,052	0,097
-703,816	-31,887	-0,165	-0,068
-702,802	-142,414	-0,127	0,009
-701,787	-62,941	-0,082	-0,025
-700,772	-7,594	0,032	0,016
-699,758	-105,538	-0,072	0,012
-698,743	91,324	0,065	0,055
-697,729	49,257	-0,052	0,036
-696,714	-200,000	0,051	0,199
-695,699	100,175	0,071	0,062
-694,685	163,088	-0,060	-0,063
-693,670	-11,767	0,028	0,013
-692,656	800,000	0,029	-0,094
-691,641	234,784	-0,017	0,020
-690,627	-51,501	0,100	0,034
-689,612	63,078	0,053	-0,040
-688,597	-200,000	0,009	0,110
-687,583	-119,318	0,092	-0,012
-686,568	-38,183	0,037	-0,015
-685,554	192,946	-0,094	0,106
-684,539	-74,231	-0,151	0,040
-683,524	49,883	0,027	0,019
-682,510	-200,000	-0,015	-0,053
-681,495	-200,000	0,021	-0,081
-680,481	-200,000	-0,006	-0,124
-679,466	-11,443	-0,125	-0,061
-678,451	-47,842	0,092	0,033
-677,437	800,000	0,024	-0,049
-676,422	-140,750	0,096	-0,007
-675,408	12,280	-0,071	-0,041
-674,393	16,103	0,064	-0,038
-673,378	-200,000	0,008	0,070
-672,364	95,181	-0,025	-0,021
-671,349	253,882	-0,119	0,152
-670,335	158,935	-0,054	0,056
-669,320	26,943	0,074	0,046
-668,305	-83,387	0,111	0,026
-667,291	-141,299	-0,052	0,004
-666,276	-161,464	-0,081	-0,003
-665,262	-48,662	-0,100	-0,035
-664,247	-200,000	-0,007	-0,094
-663,232	293,470	0,030	-0,041
-662,218	291,709	-0,034	0,047
-661,203	140,037	-0,010	0,009
-660,189	800,000	0,048	-0,153
-659,174	-200,000	0,003	-0,133
-658,159	800,000	-0,039	-0,101
-657,145	93,797	0,046	-0,039
-656,130	-200,000	0,013	-0,099
-655,116	191,219	-0,081	0,090
-654,101	319,892	-0,015	-0,021
-653,086	-135,108	0,158	0,014
-652,072	800,000	-0,027	-0,086
-651,057	800,000	-0,055	-0,179
-650,043	36,873	-0,103	-0,067
-649,028	21,815	0,044	0,027
-648,014	-42,417	-0,058	-0,022
-646,999	51,582	0,001	0,001
-645,984	-57,151	0,098	-0,032
-644,970	-120,037	0,054	-0,007
-643,955	60,465	-0,074	0,055
-642,941	40,111	-0,064	0,042
-641,926	800,000	-0,041	0,108
-640,911	379,501	-0,077	0,118
-639,897	-103,244	0,169	0,029
-638,882	151,284	-0,012	0,012
-637,868	-200,000	0,035	0,168
-636,853	10,325	-0,141	0,080
-635,838	-200,000	-0,024	-0,089
-634,824	15,823	-0,024	-0,014
-633,809	800,000	0,030	0,072
-632,795	374,490	-0,076	0,116
-631,780	800,000	0,002	-0,006
-630,765	-200,000	-0,032	-0,138
-629,751	-116,372	-0,076	-0,010
-628,736	114,133	-0,042	-0,037
-627,722	436,089	0,049	-0,080
-626,707	800,000	0,025	-0,077
-625,692	800,000	0,046	0,105
-624,678	-200,000	0,015	-0,051
-623,663	-33,545	-0,081	-0,033
-622,649	800,000	0,036	-0,082
-621,634	-200,000	0,004	-0,036
-620,619	-200,000	0,015	0,056
-619,605	-98,142	0,103	0,019
-618,590	-2,552	-0,048	-0,025
-617,576	418,847	0,054	0,086
-616,561	96,236	-0,068	0,058
-615,546	67,791	-0,060	-0,046
-614,532	-200,000	0,014	0,082
-613,517	800,000	0,010	0,031
-612,503	137,339	0,030	-0,029
-611,488	-12,746	-0,067	-0,032
-610,474	-200,000	-0,027	0,116
-609,459	-110,961	0,138	0,021
-608,444	-41,604	-0,167	-0,063
-607,430	44,691	0,077	-0,053
-606,415	14,027	-0,053	-0,030
-605,401	-200,000	-0,000	-0,056
-604,386	-200,000	-0,005	0,070
-603,371	-48,121	-0,031	-0,011
-602,357	294,173	0,046	0,063
-601,342	12,145	0,050	0,028
-600,328	-69,832	-0,051	0,014
-599,313	-144,647	-0,281	-0,019
-598,298	-200,000	-0,009	0,059
-597,284	447,788	0,068	0,111
-596,269	-200,000	0,013	0,043
-595,255	293,930	0,057	0,077
-594,240	715,574	-0,069	-0,136
-593,225	-91,019	-0,075	0,016
-592,211	-200,000	-0,016	-0,097
-591,196	800,000	0,017	0,052
-590,182	131,549	0,040	-0,038
-589,167	613,233	0,010	0,018
-588,152	800,000	-0,030	-0,088
-587,138	80,498	-0,099	-0,079
-586,123	-200,000	0,010	-0,053
-585,109	784,268	-0,065	-0,132
-584,094	591,103	-0,011	0,021
-583,079	800,000	0,012	0,026
-582,065	19,006	-0,107	0,063
-581,050	-200,000	0,008	-0,055
-580,036	5,486	0,044	0,024
-579,021	123,002	-0,031	0,029
-578,006	-200,000	0,007	-0,074
-576,992	-200,000	0,019	0,126
-575,977	-200,000	0,008	-0,076
-574,963	800,000	0,048	0,104
-573,948	800,000	0,046	-0,112
-572,934	800,000	-0,020	0,041
-571,919	132,035	-0,051	0,048
-570,904	741,009	-0,061	-0,122
-569,890	755,708	0,046	-0,093
-568,875	150,985	0,028	-0,028
-567,861	-123,894	0,096	-0,011
-566,846	-102,151	0,005	-0,001
-565,831	-157,272	0,042	-0,002
-564,817	146,362	-0,121	-0,121
-563,802	-148,335	-0,039	0,002
-562,788	-151,428	-0,059	-0,003
-561,773	-117,434	-0,077	0,010
-560,758	137,045	0,083	0,080
-559,744	-200,000	0,004	0,085
-558,729	-200,000	0,003	0,102
-557,715	207,209	-0,076	-0,088
-556,700	-137,322	-0,214	-0,018
-555,685	800,000	0,016	-0,053
-554,671	-200,000	-0,003	-0,148
-553,656	-200,000	0,019	-0,088
-552,642	16,294	0,017	0,010
-551,627	800,000	-0,041	-0,085
-550,612	55,742	0,032	-0,023
-549,598	-61,460	0,102	0,032
-548,583	782,124	-0,046	-0,094
-547,569	-200,000	-0,023	-0,109
-546,554	314,605	0,010	0,015
-545,539	475,249	0,056	0,095
-544,525	26,540	-0,021	0,013
-543,510	-40,353	-0,113	0,043
-542,496	-195,067	0,111	0,001
-541,481	17,352	-0,059	0,034
-540,466	243,969	0,109	-0,135
-539,452	117,145	0,158	-0,143
-538,437	800,000	-0,021	-0,058
-537,423	-200,000	0,002	0,052
-536,408	735,366	-0,032	-0,064
-535,393	-51,170	-0,096	0,033
-534,379	800,000	-0,038	-0,080
-533,364	58,484	-0,047	0,034
-532,350	11,101	0,046	0,026
-531,335	41,584	0,106	-0,071
-530,321	-200,000	0,002	-0,059
-529,306	477,545	-0,072	-0,121
-528,291	67,232	0,083	-0,062
-527,277	178,123	0,023	-0,025
-526,262	625,971	0,028	-0,053
-525,248	-110,791	0,123	-0,018
-524,233	-93,018	0,111	0,023
-523,218	-68,997	-0,104	0,030
-522,204	-200,000	0,013	0,120
-521,189	123,643	0,019	0,017
-520,175	-23,593	-0,177	-0,078
-519,160	189,719	0,030	0,033
-518,145	224,152	-0,083	0,099
-517,131	-200,000	-0,020	0,199
-516,116	-200,000	0,013	0,122
-515,102	-200,000	-0,000	0,065
-514,087	-200,000	0,002	0,111
-513,072	270,181	-0,063	-0,082
-512,058	-200,000	0,017	-0,073
-511,043	800,000	-0,012	-0,034
-510,029	800,000	-0,038	0,084
-509,014	800,000	-0,015	-0,044
-507,999	64,838	-0,098	-0,073
-506,985	-183,714	-0,116	-0,001
-505,970	-200,000	0,018	-0,066
-504,956	-50,916	0,114	0,039
-503,941	-120,592	0,134	0,017
-502,926	491,089	0,106	-0,179
-501,912	472,296	-0,028	0,047
-500,897	800,000	0,011	0,031
-499,883	-200,000	-0,012	-0,048
-498,868	800,000	0,038	-0,123
-497,853	26,535	-0,157	-0,097
-496,839	377,887	0,103	-0,155
-495,824	-200,000	-0,031	-0,104
-494,810	-200,000	0,014	0,069
-493,795	207,389	0,084	-0,097
-492,781	62,067	-0,094	-0,069
-491,766	237,676	-0,035	0,043
-490,751	-103,533	0,074	-0,013
-489,737	-101,488	-0,143	0,025
-488,722	6,912	0,081	-0,044
-487,708	-81,714	0,016	0,004
-486,693	800,000	-0,056	0,121
-485,678	17,072	0,074	0,043
-484,664	-27,580	-0,086	0,037
-483,649	127,225	-0,142	-0,133
-482,635	103,516	-0,061	-0,053
-481,620	-11,202	0,049	0,024
-480,605	-200,000	0,006	0,153
-479,591	11,651	-0,119	0,067
-478,576	37,539	-0,085	-0,055
-477,562	-29,363	-0,072	-0,030
-476,547	130,542	-0,109	0,103
-475,532	90,301	0,038	0,031
-474,518	-56,957	0,062	-0,020
-473,503	-200,000	0,014	0,075
-472,489	-200,000	-0,027	0,153
-471,474	-17,334	-0,093	-0,043
-470,459	-69,235	0,087	-0,024
-469,445	-128,323	0,079	0,008
-468,430	-200,000	0,025	-0,230
-467,416	-60,762	0,109	0,034
-466,401	-49,837	0,130	0,045
-465,386	800,000	-0,060	0,146
-464,372	-145,156	0,064	0,004
-463,357	-200,000	0,004	-0,103
-462,343	-200,000	-0,017	-0,100
-461,328	-58,848	-0,032	0,010
-460,313	323,732	0,057	0,081
-459,299	-200,000	-0,039	-0,157
-458,284	-36,415	-0,062	-0,025
-457,270	375,119	0,024	0,037
-456,255	-114,110	-0,112	0,016
-455,241	-34,606	0,088	-0,035
-454,226	-200,000	-0,005	-0,022
-453,211	-53,087	-0,058	-0,019
-452,197	63,563	0,089	-0,065
-451,182	-3,644	0,071	0,036
-450,168	800,000	0,035	0,076
-449,153	-84,968	-0,128	-0,029
-448,138	-123,992	-0,153	0,017
-447,124	-200,000	-0,006	-0,029
-446,109	76,731	0,072	-0,056
-445,095	54,645	0,101	0,072
-444,080	-200,000	-0,023	0,116
-443,065	-200,000	-0,015	-0,057
-442,051	800,000	0,034	0,082
-441,036	-91,657	-0,117	0,024
-440,022	800,000	-0,052	0,107
-439,007	-62,792	-0,100	-0,030
-437,992	243,839	0,036	-0,044
-436,978	-200,000	-0,011	-0,046
-435,963	168,491	-0,023	-0,024
-434,949	215,326	0,041	-0,048
-433,934	15,548	0,065	0,038
-432,919	800,000	-0,054	-0,129
-431,905	-200,000	-0,002	0,128
-430,890	136,903	0,063	-0,061
-429,876	-200,000	0,014	-0,103
-428,861	-200,000	-0,151	-0,000
-427,846	91,387	0,040	-0,033
-426,832	144,601	-0,102	0,100
-425,817	261,999	-0,059	0,075
-424,803	-16,794	-0,015	-0,007
-423,788	142,772	-0,055	0,054
-422,773	-49,197	0,058	-0,020
-421,759	523,719	-0,015	-0,026
-420,744	-40,921	0,046	-0,017
-419,730	-47,690	0,076	0,027
-418,715	-10,822	-0,091	-0,044
-417,701	321,967	0,084	-0,118
-416,686	530,082	0,073	0,128
-415,671	503,603	-0,072	0,123
-414,657	33,653	0,070	0,045
-413,642	117,408	0,167	0,151
-412,628	15,831	-0,036	-0,021
-411,613	77,044	-0,066	0,052
-410,598	-26,633	-0,148	0,064
-409,584	215,939	0,068	-0,079
-408,569	-200,000	0,010	0,132
-407,555	-55,185	-0,042	0,014
-406,540	130,214	-0,079	-0,075
-405,525	-200,000	0,008	0,108
-404,511	-46,874	0,138	0,049
-403,496	-135,016	0,040	0,004
-402,482	-6,141	0,062	0,031
-401,467	-200,000	0,029	0,099
-400,452	-134,084	0,011	-0,001
-399,438	-129,140	-0,127	-0,013
-398,423	147,012	-0,056	-0,055
-397,409	136,906	-0,080	0,077
-396,394	128,732	-0,020	-0,018
-395,379	62,116	0,085	0,063
-394,365	-66,460	0,157	0,046
-393,350	-132,331	0,132	0,012
-392,336	-200,000	0,004	0,064
-391,321	13,444	0,019	-0,011
-390,306	-113,589	0,168	0,024
-389,292	-200,000	-0,004	-0,171
-388,277	-200,000	0,030	0,100
-387,263	800,000	-0,023	0,063
-386,248	-200,000	0,016	0,087
-385,233	800,000	-0,018	-0,051
-384,219	-41,841	0,062	0,023
-383,204	73,831	-0,132	-0,101
-382,190	800,000	-0,039	-0,097
-381,175	43,893	0,136	0,091
-380,160	-200,000	-0,004	0,086
-379,146	-125,032	0,068	-0,008
-378,131	-121,485	0,048	0,006
-377,117	-200,000	0,001	-0,042
-376,102	-143,719	-0,131	-0,009
-375,088	-71,237	-0,146	-0,040
-374,073	-200,000	-0,009	-0,049
-373,058	-3,472	0,119	0,061
-372,044	-200,000	0,001	-0,099
-371,029	178,126	0,154	0,165
-370,015	-200,000	0,012	0,063
-369,000	-48,625	0,002	0,001
-367,985	-180,882	-0,131	0,002
-366,971	73,436	0,125	-0,096
-365,956	337,741	0,062	-0,089
-364,942	301,244	0,153	-0,208
-363,927	-142,701	0,140	0,010
-362,912	-109,260	-0,091	0,014
-361,898	-123,277	-0,080	-0,009
-360,883	-59,666	-0,083	0,026
-359,869	-200,000	-0,005	-0,032
-358,854	157,490	0,102	0,104
-357,839	273,580	-0,063	0,082
-356,825	-61,409	0,108	0,033
-355,810	465,534	0,073	0,120
-354,796	-200,000	-0,038	-0,213
-353,781	800,000	-0,076	-0,165
-352,766	129,183	-0,125	-0,117
-351,752	-167,270	-0,083	-0,002
-350,737	-57,214	0,011	-0,004
-349,723	-23,278	-0,043	-0,019
-348,708	108,952	-0,077	-0,068
-347,693	162,137	0,055	-0,057
-346,679	31,389	-0,150	0,095
-345,664	128,214	-0,073	-0,068
-344,650	-10,139	-0,027	-0,013
-343,635	-14,017	0,057	-0,027
-342,620	-200,000	-0,011	0,158
-341,606	426,478	-0,037	0,059
-340,591	800,000	0,038	0,082
-339,577	800,000	0,014	0,042
-338,562	800,000	-0,073	-0,185
-337,548	394,609	0,028	-0,043
-336,533	-200,000	-0,019	-0,106
-335,518	-3,214	0,111	0,056
-334,504	-90,825	0,083	-0,017
-333,489	-200,000	-0,010	-0,033
-332,475	31,481	-0,082	-0,052
-331,460	-200,000	0,006	-0,056
-330,445	-3,924	-0,076	0,038
-329,431	-200,000	-0,015	0,133
-328,416	-176,652	0,152	0,003
-327,402	134,561	0,134	0,128
-326,387	-200,000	-0,026	0,125
-325,372	-89,772	-0,180	-0,038
-324,358	-116,307	-0,209	0,028
-323,343	-125,234	-0,154	0,017
-322,329	800,000	0,039	-0,099
-321,314	-33,379	0,184	0,074
-320,299	-72,981	-0,052	-0,014
-319,285	506,028	0,055	0,094
-318,270	-200,000	-0,001	-0,092
-317,256	155,315	0,078	-0,079
-316,241	628,559	-0,019	-0,034
-315,226	-200,000	-0,010	-0,114
-314,212	-52,275	-0,121	0,041
-313,197	131,799	-0,095	0,090
-312,183	-30,812	-0,036	0,015
-311,168	171,176	-0,126	0,133
-310,153	-10,905	0,125	0,060
-309,139	-33,582	0,078	-0,031
-308,124	88,430	0,072	-0,059
-307,110	-128,387	0,072	-0,007
-306,095	144,335	0,105	0,103
-305,080	643,301	0,045	0,084
-304,066	229,047	0,040	0,047
-303,051	549,311	0,040	-0,071
-302,037	-200,000	-0,014	-0,109
-301,022	-2,503	-0,043	-0,022
-300,008	5,001	0,086	-0,046
-298,993	396,513	0,073	-0,113
-297,978	109,976	0,030	-0,026
-296,964	-200,000	-0,027	0,120
-295,949	-200,000	-0,001	-0,147
-294,935	-13,949	0,097	-0,046
-293,920	800,000	-0,035	-0,079
-292,905	83,280	-0,086	-0,068
-291,891	-200,000	-0,009	0,036
-290,876	341,008	0,064	0,092
-289,862	-37,707	-0,034	-0,013
-288,847	193,552	-0,011	0,012
-287,832	800,000	0,016	0,052
-286,818	-76,510	-0,130	-0,033
-285,803	-200,000	0,034	-0,135
-284,789	86,091	-0,103	0,083
-283,774	-113,831	0,039	0,005
-282,759	3,043	-0,008	0,004
-281,745	-200,000	0,004	-0,059
-280,730	28,479	-0,074	-0,046
-279,716	-183,319	0,145	0,002
-278,701	96,569	0,111	-0,093
-277,686	-111,774	0,063	-0,009
-276,672	-163,292	0,084	0,003
-275,657	-73,819	-0,085	-0,022
-274,643	-200,000	0,015	-0,053
-273,628	401,558	0,049	-0,076
-272,613	347,108	-0,092	-0,134
-271,599	54,327	-0,028	-0,020
-270,584	-72,773	-0,040	-0,011
-269,570	136,138	0,065	0,062
-268,555	337,586	0,028	0,040
-267,540	-98,692	-0,065	0,012
-266,526	-161,611	-0,113	0,004
-265,511	-34,331	-0,009	0,004
-264,497	222,907	0,052	0,062
-263,482	121,734	-0,078	-0,071
-262,467	-57,044	0,026	-0,008
-261,453	-72,149	0,037	-0,010
-260,438	-79,074	-0,041	0,010
-259,424	-200,000	0,018	0,000
-258,409	382,064	-0,049	-0,074
-257,395	800,000	0,032	0,082
-256,380	-200,000	-0,002	0,041
-255,365	-74,025	0,070	-0,018
-254,351	95,053	-0,052	-0,043
-253,336	-200,000	-0,012	0,115
-252,322	42,868	-0,031	-0,020
-251,307	800,000	0,058	-0,159
-250,292	275,777	-0,016	-0,020
-249,278	661,734	0,085	0,160
-248,263	17,331	0,135	0,078
-247,249	-200,000	-0,008	0,059
-246,234	12,215	-0,069	-0,039
-245,219	-200,000	0,008	0,044
-244,205	515,012	-0,048	0,082
-243,190	11,801	0,111	0,062
-242,176	-78,985	-0,127	-0,031
-241,161	-200,000	0,000	0,019
-240,146	-4,734	0,050	-0,025
-239,132	189,859	0,043	0,048
-238,117	337,984	0,029	-0,042
-237,103	-86,652	0,045	-0,010
-236,088	-200,000	-0,022	0,081
-235,073	90,812	-0,161	0,132
-234,059	-200,000	0,028	0,122
-233,044	114,860	0,018	0,016
-232,030	-24,208	-0,069	0,030
-231,015	75,860	-0,082	-0,063
-230,000	800,000	-0,017	-0,040
-228,986	-200,000	-0,026	-0,110
-227,971	259,091	0,092	-0,117
-226,957	-200,000	0,019	0,093
-225,942	-17,510	-0,057	0,026
-224,927	351,324	-0,019	-0,027
-223,913	800,000	-0,032	-0,101
-222,898	-79,565	0,038	-0,009
-221,884	131,587	0,100	-0,094
-220,869	-87,603	0,031	0,007
-219,855	135,284	0,084	-0,080
-218,840	33,307	-0,130	-0,082
-217,825	-68,024	0,185	0,052
-216,811	269,120	0,057	-0,074
-215,796	-123,736	0,045	0,005
-214,782	69,965	0,079	-0,059
-213,767	36,263	-0,034	0,022
-212,752	-200,000	0,019	0,089
-211,738	-200,000	0,011	-0,056
-210,723	259,807	0,058	0,073
-209,709	-200,000	-0,001	-0,066
-208,694	-6,993	-0,082	-0,041
-207,679	169,943	0,025	0,026
-206,665	105,160	0,065	-0,056
-205,650	92,564	0,061	-0,050
-204,636	-200,000	0,033	0,187
-203,621	206,793	0,077	0,088
-202,606	-118,481	-0,085	0,011
-201,592	-52,832	0,062	-0,021
-200,577	263,139	-0,050	0,063
-199,563	35,321	-0,031	-0,020
-198,548	563,751	-0,018	0,032
-197,533	-200,000	0,028	0,111
-196,519	-200,000	0,000	0,003
-195,504	-112,721	-0,073	0,011
-194,490	-89,289	0,055	-0,012
-193,475	8,964	0,162	-0,089
-192,460	800,000	-0,033	-0,072
-191,446	-200,000	0,007	0,157
-190,431	-200,000	-0,004	0,064
-189,417	-200,000	0,043	0,142
-188,402	50,699	-0,011	0,008
-187,387	79,477	-0,140	-0,110
-186,373	518,525	-0,032	-0,056
-185,358	-79,395	0,090	-0,022
-184,344	506,561	0,072	0,123
-183,329	65,729	0,033	-0,025
-182,315	137,192	0,093	0,089
-181,300	-91,841	0,069	-0,014
-180,285	399,251	0,040	0,062
-179,271	47,144	0,090	-0,061
-178,256	30,860	-0,166	0,104
-177,242	-2,687	-0,071	-0,036
-176,227	800,000	0,016	0,045
-175,212	-200,000	-0,014	0,101
-174,198	-73,684	0,137	-0,036
-173,183	66,003	0,085	0,063
-172,169	-78,392	-0,188	-0,047
-171,154	-200,000	0,004	-0,016
-170,139	48,280	0,061	0,042
-169,125	-85,939	0,087	-0,019
-168,110	800,000	-0,048	-0,118
-167,096	-200,000	-0,006	0,028
-166,081	-200,000	0,004	0,051
-165,066	-200,000	0,001	-0,051
-164,052	-200,000	0,014	0,072
-163,037	141,784	-0,061	0,058
-162,023	800,000	-0,047	0,111
-161,008	-200,000	-0,002	0,066
-159,993	-142,688	-0,050	0,004
-158,979	-200,000	-0,000	0,170
-157,964	308,956	-0,022	-0,031
-156,950	800,000	0,040	-0,101
-155,935	216,582	-0,065	-0,075
-154,920	800,000	0,010	-0,023
-153,906	-194,396	0,042	-0,000
-152,891	-153,957	0,092	-0,004
-151,877	9,794	-0,070	0,039
-150,862	800,000	-0,047	-0,137
-149,847	67,723	0,060	-0,045
-148,833	-48,312	-0,074	-0,026
-147,818	443,544	0,041	-0,065
-146,804	65,393	-0,070	0,051
-145,789	-200,000	0,017	-0,078
-144,775	-200,000	0,005	-0,059
-143,760	800,000	0,044	0,091
-142,745	-122,027	-0,136	-0,016
-141,731	-100,393	0,097	0,017
-140,716	227,202	0,083	0,098
-139,702	-37,176	0,071	-0,028
-138,687	-200,000	0,026	0,096
-137,672	-200,000	0,002	-0,082
-136,658	800,000	-0,034	-0,091
-135,643	-154,620	-0,142	0,007
-134,629	-51,446	-0,039	0,013
-133,614	280,918	0,104	0,135
-132,599	-57,467	-0,077	-0,024
-131,585	-51,662	-0,068	0,023
-130,570	-87,039	-0,091	-0,020
-129,556	-34,834	-0,211	-0,083
-128,541	-67,308	-0,050	-0,014
-127,526	-106,582	0,089	0,014
-126,512	-200,000	0,009	-0,075
-125,497	392,010	0,036	0,054
-124,483	-13,469	0,058	0,027
-123,468	-145,262	-0,152	-0,010
-122,453	-200,000	0,003	-0,118
-121,439	88,454	0,050	0,041
-120,424	573,187	-0,009	-0,016
-119,410	564,743	0,100	0,177
