DTS Sentinel unit serial number:	SN410029Multiplexer serial number:	ORYXHardware model number:	OX2-SRSoftware version number:	ORYX F/W v4,00 Oryx Data Collector v3.7.2.0data status	okinstallation	B6 Nyhavnadifferential loss correction	single-endedforward channel	channel 2reverse channel	N/Adate	2023/12/08time	23:20:08forward acquisition time	300,00reverse acquisition time	0,00gamma	499,1914k internal	0,3157k external	0,3157temperature offset calibration	1,0000default loss term (dB/km)	0,3820temperature slope calibration	1,0000multiplexer offset coefficient	1,0000multiplexer slope coefficient	1,0000fibre end	0,00T internal ref (°C)	15,44T ext. ref 1 (°C)	-1,01T ext. ref 2 (°C)	-1,00length (m)	temperature (°C)	Stokes	anti-Stokes-744,400	254,064	0,054	0,069
-743,385	-111,174	-0,307	0,046
-742,371	-200,000	-0,007	0,098
-741,356	-25,321	-0,283	0,123
-740,342	-46,344	0,152	0,055
-739,327	-60,825	-0,266	-0,083
-738,312	-200,000	0,004	0,085
-737,298	-173,841	-0,217	-0,005
-736,283	93,914	0,166	0,139
-735,269	-103,037	-0,227	0,039
-734,254	-95,949	0,168	0,033
-733,239	-44,110	-0,474	-0,174
-732,225	193,059	0,171	-0,191
-731,210	43,803	0,191	-0,128
-730,196	222,685	0,096	-0,114
-729,181	800,000	0,016	-0,049
-728,167	58,624	-0,037	0,027
-727,152	-171,876	-0,179	-0,004
-726,137	-19,450	-0,185	-0,084
-725,123	-200,000	-0,038	-0,178
-724,108	-200,000	-0,002	0,048
-723,094	-62,737	-0,130	-0,039
-722,079	800,000	0,006	-0,014
-721,064	-200,000	0,004	-0,127
-720,050	348,455	0,033	-0,049
-719,035	554,327	0,063	0,113
-718,021	-102,924	-0,011	0,002
-717,006	459,110	0,147	-0,242
-715,991	-127,151	-0,055	-0,006
-714,977	-126,543	-0,007	0,001
-713,962	-65,372	-0,058	-0,017
-712,948	-200,000	-0,002	0,090
-711,933	-200,000	-0,004	-0,122
-710,918	286,923	0,037	-0,049
-709,904	-106,697	-0,075	0,012
-708,889	800,000	-0,043	-0,114
-707,875	-200,000	-0,013	0,058
-706,860	800,000	0,045	0,100
-705,845	184,118	0,079	-0,086
-704,831	800,000	-0,063	-0,165
-703,816	-200,000	-0,017	-0,070
-702,802	212,913	-0,084	-0,098
-701,787	-71,994	0,035	-0,009
-700,772	800,000	-0,044	-0,118
-699,758	140,397	-0,020	-0,020
-698,743	110,966	0,074	0,066
-697,729	675,785	-0,035	0,067
-696,714	68,610	-0,048	0,036
-695,699	26,396	-0,068	-0,042
-694,685	800,000	-0,086	-0,199
-693,670	-200,000	0,029	-0,123
-692,656	88,881	-0,031	-0,025
-691,641	-117,006	0,135	-0,018
-690,627	82,599	0,064	0,051
-689,612	-200,000	-0,006	0,049
-688,597	366,058	0,031	0,046
-687,583	-4,642	-0,117	0,059
-686,568	-137,863	-0,141	0,011
-685,554	116,129	-0,020	-0,018
-684,539	-57,073	-0,021	0,007
-683,524	150,065	0,036	-0,036
-682,510	-200,000	0,009	0,084
-681,495	-177,918	-0,120	-0,002
-680,481	-200,000	-0,049	-0,171
-679,466	203,009	0,040	0,046
-678,451	72,764	-0,046	-0,035
-677,437	800,000	0,064	-0,161
-676,422	281,183	-0,034	0,045
-675,408	-71,463	-0,083	0,023
-674,393	-45,998	-0,184	0,066
-673,378	77,110	-0,042	0,032
-672,364	361,409	-0,052	0,076
-671,349	-20,258	-0,061	0,028
-670,335	-68,973	-0,081	-0,023
-669,320	173,020	0,050	0,054
-668,305	603,428	-0,025	-0,047
-667,291	-51,737	-0,085	-0,029
-666,276	-200,000	0,014	-0,073
-665,262	-64,063	-0,186	-0,056
-664,247	-4,694	-0,110	-0,056
-663,232	-151,255	0,092	-0,005
-662,218	-200,000	-0,002	0,061
-661,203	800,000	0,050	0,105
-660,189	-200,000	0,009	-0,077
-659,174	800,000	0,029	-0,090
-658,159	-200,000	-0,007	-0,092
-657,145	800,000	-0,030	0,065
-656,130	12,075	0,016	0,009
-655,116	-73,699	-0,023	0,006
-654,101	25,261	0,071	-0,043
-653,086	-200,000	-0,004	0,024
-652,072	800,000	0,063	-0,155
-651,057	183,366	-0,025	-0,027
-650,043	-30,081	0,071	0,029
-649,028	800,000	-0,016	0,036
-648,014	10,169	-0,015	0,008
-646,999	-200,000	-0,001	-0,027
-645,984	-200,000	-0,031	0,134
-644,970	-191,600	-0,245	-0,002
-643,955	-130,391	-0,165	0,016
-642,941	-50,684	-0,099	-0,034
-641,926	-200,000	-0,014	0,103
-640,911	96,508	-0,101	-0,085
-639,897	29,371	-0,039	-0,024
-638,882	432,454	0,096	-0,153
-637,868	-200,000	0,010	0,053
-636,853	-25,614	0,064	0,028
-635,838	-200,000	0,014	-0,135
-634,824	800,000	-0,051	-0,157
-633,809	127,991	-0,089	0,083
-632,795	210,740	0,050	-0,058
-631,780	-27,057	0,096	-0,041
-630,765	230,670	-0,097	-0,117
-629,751	413,652	0,061	-0,096
-628,736	51,764	-0,061	0,042
-627,722	800,000	-0,016	0,034
-626,707	196,957	0,015	0,016
-625,692	800,000	0,035	-0,100
-624,678	-200,000	0,025	0,136
-623,663	-200,000	-0,011	0,084
-622,649	-200,000	0,003	0,015
-621,634	180,342	-0,096	-0,104
-620,619	-147,968	-0,040	-0,002
-619,605	-47,271	-0,035	0,013
-618,590	-200,000	0,002	0,045
-617,576	800,000	0,013	-0,032
-616,561	278,052	0,087	0,113
-615,546	-40,635	0,017	0,007
-614,532	800,000	0,027	-0,073
-613,517	37,965	-0,102	-0,067
-612,503	-87,995	-0,103	-0,022
-611,488	-62,846	0,071	-0,021
-610,474	-200,000	0,002	0,057
-609,459	-41,432	0,076	0,028
-608,444	800,000	-0,030	-0,071
-607,430	112,625	-0,031	-0,028
-606,415	99,428	-0,101	0,085
-605,401	-149,747	0,032	-0,002
-604,386	800,000	0,031	-0,092
-603,371	89,253	-0,022	-0,018
-602,357	298,580	0,075	0,101
-601,342	463,384	-0,027	-0,045
-600,328	243,764	0,067	0,083
-599,313	-200,000	-0,003	-0,147
-598,298	-5,718	0,055	-0,028
-597,284	-132,459	0,059	0,006
-596,269	-200,000	-0,028	0,107
-595,255	128,491	-0,084	0,079
-594,240	294,934	-0,073	0,098
-593,225	-50,020	-0,142	-0,049
-592,211	-200,000	0,004	-0,025
-591,196	-0,973	0,025	0,013
-590,182	-184,129	-0,062	0,001
-589,167	-200,000	0,022	-0,102
-588,152	210,695	-0,034	0,039
-587,138	-200,000	0,001	-0,046
-586,123	391,706	0,057	0,088
-585,109	-200,000	-0,009	-0,057
-584,094	-200,000	0,008	-0,131
-583,079	213,115	-0,154	0,178
-582,065	388,995	-0,035	0,054
-581,050	66,625	-0,093	-0,069
-580,036	-130,435	-0,201	-0,020
-579,021	-200,000	-0,010	-0,229
-578,006	-200,000	-0,013	-0,100
-576,992	-21,193	-0,093	0,042
-575,977	330,118	0,042	-0,060
-574,963	-27,689	0,094	0,040
-573,948	800,000	0,014	-0,042
-572,934	51,680	-0,034	-0,024
-571,919	152,673	-0,038	0,038
-570,904	-137,310	-0,064	-0,005
-569,890	-200,000	-0,016	-0,059
-568,875	58,923	0,046	-0,033
-567,861	492,187	0,042	0,071
-566,846	83,618	-0,105	0,084
-565,831	-200,000	-0,034	-0,163
-564,817	-183,601	-0,027	0,000
-563,802	-123,503	0,174	0,020
-562,788	-200,000	0,015	-0,066
-561,773	-200,000	-0,011	-0,165
-560,758	703,387	-0,050	0,096
-559,744	-74,416	-0,056	0,015
-558,729	54,524	0,037	-0,026
-557,715	-200,000	0,037	0,158
-556,700	198,310	0,083	-0,093
-555,685	-200,000	0,014	0,062
-554,671	33,178	-0,028	-0,017
-553,656	800,000	0,025	0,065
-552,642	55,038	0,092	0,065
-551,627	-200,000	0,031	-0,182
-550,612	-8,881	-0,104	-0,051
-549,598	-23,536	0,011	-0,005
-548,583	256,622	0,046	-0,058
-547,569	165,537	-0,018	-0,018
-546,554	-131,371	0,086	0,008
-545,539	-112,511	0,081	-0,012
-544,525	217,893	0,073	-0,085
-543,510	-200,000	0,002	-0,072
-542,496	-200,000	0,010	0,052
-541,481	-200,000	0,012	-0,124
-540,466	800,000	-0,041	-0,102
-539,452	-105,195	0,079	-0,013
-538,437	488,241	-0,041	0,068
-537,423	-200,000	0,003	0,069
-536,408	-92,227	-0,027	0,006
-535,393	800,000	-0,025	0,062
-534,379	-26,561	-0,136	-0,058
-533,364	48,338	0,020	-0,013
-532,350	183,262	0,127	0,137
-531,335	-102,281	-0,074	0,013
-530,321	800,000	-0,022	0,054
-529,306	800,000	-0,022	0,060
-528,291	-154,990	-0,032	-0,002
-527,277	800,000	-0,064	-0,181
-526,262	-120,523	0,091	-0,011
-525,248	-105,051	0,123	-0,020
-524,233	199,579	0,054	0,061
-523,218	-200,000	-0,114	0,000
-522,204	-200,000	-0,005	-0,144
-521,189	372,215	-0,037	0,055
-520,175	-36,255	0,038	0,015
-519,160	375,071	-0,068	0,101
-518,145	-79,195	-0,007	-0,002
-517,131	-200,000	0,023	0,119
-516,116	67,823	0,081	0,060
-515,102	417,725	0,012	-0,020
-514,087	800,000	0,026	0,069
-513,072	251,011	-0,033	-0,042
-512,058	109,644	-0,117	-0,102
-511,043	-35,775	-0,019	0,008
-510,029	300,123	0,030	-0,040
-509,014	47,639	-0,148	0,101
-507,999	800,000	0,060	0,141
-506,985	800,000	-0,054	-0,109
-505,970	800,000	-0,037	-0,080
-504,956	-200,000	0,034	-0,151
-503,941	667,899	0,046	0,087
-502,926	144,038	0,046	0,045
-501,912	-116,254	-0,040	0,005
-500,897	-54,818	-0,026	-0,008
-499,883	486,484	0,017	0,029
-498,868	-200,000	0,016	-0,065
-497,853	-200,000	-0,005	-0,049
-496,839	-33,276	-0,068	0,028
-495,824	-200,000	-0,031	0,109
-494,810	-149,567	0,240	-0,014
-493,795	93,572	-0,093	-0,077
-492,781	-49,558	-0,200	-0,069
-491,766	487,168	0,050	0,083
-490,751	-200,000	0,001	-0,050
-489,737	545,735	0,086	-0,150
-488,722	242,461	-0,031	-0,038
-487,708	-32,189	-0,086	0,035
-486,693	-185,109	0,089	-0,001
-485,678	216,155	-0,030	0,034
-484,664	-200,000	0,024	-0,087
-483,649	-76,303	-0,082	0,021
-482,635	800,000	0,023	0,053
-481,620	-56,459	0,151	0,049
-480,605	57,981	-0,064	0,045
-479,591	-200,000	0,010	-0,062
-478,576	170,785	-0,090	-0,094
-477,562	325,685	0,024	-0,034
-476,547	25,387	-0,092	0,056
-475,532	574,480	0,026	-0,047
-474,518	-149,176	0,041	0,002
-473,503	-188,305	0,073	0,001
-472,489	-76,989	-0,135	-0,034
-471,474	-107,359	-0,092	0,015
-470,459	-156,791	-0,068	0,003
-469,445	800,000	-0,014	-0,040
-468,430	-105,379	0,034	0,006
-467,416	-91,770	-0,154	0,032
-466,401	10,270	0,174	-0,096
-465,386	-125,806	0,055	0,006
-464,372	281,501	-0,081	-0,106
-463,357	-200,000	0,019	0,089
-462,343	14,184	0,066	0,038
-461,328	73,333	-0,092	-0,070
-460,313	-181,156	-0,007	0,000
-459,299	-200,000	-0,009	-0,042
-458,284	800,000	-0,014	-0,038
-457,270	800,000	-0,044	-0,123
-456,255	-128,051	0,145	-0,015
-455,241	800,000	0,058	-0,133
-454,226	-200,000	-0,002	0,057
-453,211	594,139	0,029	0,053
-452,197	-200,000	0,027	0,138
-451,182	68,755	-0,058	0,044
-450,168	40,208	-0,135	0,088
-449,153	-200,000	-0,007	-0,173
-448,138	-200,000	-0,014	-0,061
-447,124	-200,000	0,001	-0,088
-446,109	25,509	0,065	-0,039
-445,095	-14,328	0,086	-0,040
-444,080	-200,000	0,015	-0,070
-443,065	19,962	-0,070	-0,041
-442,051	-200,000	0,013	-0,083
-441,036	-200,000	-0,025	-0,125
-440,022	541,640	0,036	-0,063
-439,007	435,037	0,029	0,046
-437,992	-87,422	0,086	-0,019
-436,978	-200,000	0,011	0,120
-435,963	800,000	-0,039	-0,079
-434,949	751,408	0,013	-0,025
-433,934	800,000	-0,068	-0,148
-432,919	259,733	-0,030	-0,038
-431,905	-200,000	-0,009	-0,039
-430,890	502,498	0,060	0,101
-429,876	-200,000	0,035	0,153
-428,861	-200,000	0,023	0,131
-427,846	-200,000	-0,001	0,098
-426,832	800,000	0,020	0,063
-425,817	-200,000	0,039	-0,152
-424,803	335,861	0,064	-0,090
-423,788	-134,919	0,063	0,005
-422,773	659,751	-0,075	-0,141
-421,759	800,000	-0,018	0,043
-420,744	-14,117	-0,064	-0,030
-419,730	-81,959	-0,056	-0,013
-418,715	525,173	-0,035	0,060
-417,701	-34,697	-0,105	0,042
-416,686	143,469	0,109	-0,106
-415,671	-12,716	0,007	-0,003
-414,657	-200,000	-0,003	-0,133
-413,642	-200,000	0,023	-0,141
-412,628	-200,000	0,024	-0,145
-411,613	800,000	0,006	0,019
-410,598	-13,402	-0,086	0,041
-409,584	800,000	0,037	0,097
-408,569	-200,000	-0,002	0,037
-407,555	-39,723	0,181	0,068
-406,540	-50,350	0,033	0,011
-405,525	-200,000	-0,007	-0,087
-404,511	-126,830	-0,160	-0,017
-403,496	-200,000	-0,003	-0,095
-402,482	800,000	-0,042	0,087
-401,467	396,274	-0,078	0,119
-400,452	-24,776	-0,110	-0,047
-399,438	-200,000	0,026	0,083
-398,423	377,299	0,014	-0,021
-397,409	-179,706	0,013	0,000
-396,394	-200,000	-0,016	0,083
-395,379	-109,850	0,095	0,014
-394,365	14,851	0,179	0,102
-393,350	147,487	0,064	0,063
-392,336	46,659	-0,043	0,029
-391,321	-91,733	0,013	-0,003
-390,306	138,057	-0,029	0,028
-389,292	75,302	-0,060	0,046
-388,277	-200,000	-0,010	-0,075
-387,263	170,200	0,072	-0,075
-386,248	96,313	-0,077	0,064
-385,233	-96,383	0,035	0,007
-384,219	-168,261	-0,043	-0,001
-383,204	800,000	-0,046	-0,097
-382,190	-200,000	0,016	0,110
-381,175	-3,886	-0,126	0,063
-380,160	292,717	-0,068	0,090
-379,146	-7,322	-0,121	0,059
-378,131	-149,536	0,042	0,002
-377,117	800,000	-0,013	0,033
-376,102	83,386	-0,067	-0,053
-375,088	-200,000	-0,001	-0,111
-374,073	-200,000	0,000	-0,187
-373,058	554,577	-0,052	-0,092
-372,044	-6,976	-0,102	0,050
-371,029	-119,279	-0,059	0,007
-370,015	172,084	0,042	-0,043
-369,000	170,031	-0,058	0,060
-367,985	108,851	0,032	-0,027
-366,971	31,758	-0,056	0,035
-365,956	-200,000	0,006	0,074
-364,942	-200,000	0,015	-0,088
-363,927	-200,000	0,028	0,146
-362,912	-26,693	-0,052	-0,022
-361,898	222,268	0,020	0,023
-360,883	35,116	-0,080	0,051
-359,869	237,495	0,026	0,032
-358,854	-169,819	0,244	0,006
-357,839	159,055	-0,014	-0,014
-356,825	-200,000	0,017	-0,064
-355,810	171,531	0,039	0,041
-354,796	23,434	0,082	-0,049
-353,781	0,075	-0,002	0,001
-352,766	-93,895	-0,064	0,013
-351,752	-173,545	0,081	0,002
-350,737	800,000	0,021	0,056
-349,723	309,288	0,022	0,030
-348,708	-130,364	0,120	-0,012
-347,693	-200,000	0,004	-0,143
-346,679	-200,000	0,008	-0,095
-345,664	-200,000	-0,009	-0,051
-344,650	-200,000	-0,034	0,174
-343,635	22,139	0,152	0,090
-342,620	-70,111	0,098	0,027
-341,606	-200,000	0,000	0,016
-340,591	-33,866	0,078	-0,031
-339,577	218,557	-0,061	0,070
-338,562	9,684	-0,082	-0,045
-337,548	299,418	0,039	-0,052
-336,533	800,000	-0,038	-0,109
-335,518	318,552	0,057	0,078
-334,504	294,042	-0,033	-0,044
-333,489	79,304	0,114	0,089
-332,475	-94,345	0,090	-0,018
-331,460	161,821	-0,066	-0,067
-330,445	346,410	-0,048	-0,068
-329,431	314,064	-0,053	-0,072
-328,416	-23,552	0,060	0,026
-327,402	800,000	-0,049	-0,099
-326,387	800,000	0,031	0,085
-325,372	-200,000	0,013	-0,118
-324,358	550,033	-0,084	-0,147
-323,343	-200,000	0,011	0,046
-322,329	294,190	0,043	0,058
-321,314	18,310	0,157	-0,091
-320,299	36,939	0,091	0,058
-319,285	182,673	0,076	0,081
-318,270	-200,000	0,015	0,048
-317,256	-40,917	-0,127	-0,047
-316,241	-77,375	-0,111	-0,028
-315,226	800,000	-0,056	0,119
-314,212	-95,143	0,077	-0,015
-313,197	311,220	0,050	0,068
-312,183	203,092	0,008	-0,008
-311,168	196,262	0,079	-0,087
-310,153	43,877	-0,077	0,051
-309,139	373,843	0,035	-0,052
-308,124	486,135	-0,058	0,097
-307,110	-200,000	0,014	-0,080
-306,095	317,032	0,057	0,079
-305,080	-200,000	0,024	0,101
-304,066	-200,000	-0,026	0,093
-303,051	-144,665	-0,072	0,005
-302,037	531,040	0,076	-0,130
-301,022	321,453	0,029	-0,040
-300,008	114,497	0,047	-0,041
-298,993	-144,553	0,031	0,002
-297,978	-8,274	0,080	0,039
-296,964	577,726	-0,057	-0,102
-295,949	349,891	-0,002	-0,003
-294,935	-35,606	0,050	0,019
-293,920	-200,000	0,008	0,082
-292,905	233,257	0,088	0,105
-291,891	-14,804	0,141	0,065
-290,876	326,931	0,028	-0,039
-289,862	-200,000	0,003	-0,153
-288,847	-200,000	-0,000	0,023
-287,832	-177,216	-0,105	-0,002
-286,818	204,081	0,049	-0,055
-285,803	426,605	-0,034	0,054
-284,789	104,032	-0,053	0,045
-283,774	18,860	0,076	0,044
-282,759	-86,228	0,085	-0,019
-281,745	0,711	-0,050	0,026
-280,730	-187,908	-0,095	0,001
-279,716	-200,000	-0,034	0,125
-278,701	21,055	0,056	0,033
-277,686	-200,000	-0,007	0,035
-276,672	748,446	0,082	0,161
-275,657	800,000	0,016	0,036
-274,643	-200,000	-0,022	-0,204
-273,628	-58,583	0,144	-0,045
-272,613	800,000	0,020	0,041
-271,599	-200,000	0,007	0,112
-270,584	-125,000	0,054	-0,006
-269,570	198,690	-0,026	-0,029
-268,555	800,000	-0,040	0,107
-267,540	81,342	-0,142	0,111
-266,526	568,754	-0,041	-0,072
-265,511	-200,000	0,013	0,126
-264,497	-34,175	-0,127	-0,050
-263,482	543,552	-0,052	0,091
-262,467	-115,342	0,101	-0,014
-261,453	-200,000	0,003	-0,093
-260,438	-79,015	-0,111	-0,027
-259,424	-134,881	-0,056	-0,005
-258,409	-200,000	0,015	-0,086
-257,395	-121,538	0,048	-0,006
-256,380	-200,000	0,020	0,144
-255,365	51,370	-0,058	0,040
-254,351	138,873	0,106	0,101
-253,336	-200,000	0,005	0,135
-252,322	56,700	0,056	0,039
-251,307	39,342	0,035	-0,023
-250,292	-164,085	0,013	0,000
-249,278	307,670	0,062	-0,083
-248,263	237,540	0,106	0,127
-247,249	-143,336	0,029	-0,002
-246,234	-200,000	-0,025	-0,083
-245,219	180,342	0,081	-0,086
-244,205	-200,000	-0,004	0,070
-243,190	-59,688	-0,123	-0,038
-242,176	-158,259	0,024	0,001
-241,161	793,451	0,046	0,092
-240,146	-45,008	0,118	0,042
-239,132	668,535	0,017	0,032
-238,117	148,359	-0,085	0,083
-237,103	114,024	0,050	-0,044
-236,088	189,405	-0,026	-0,028
-235,073	-66,608	-0,069	0,020
-234,059	-47,559	0,161	-0,056
-233,044	-200,000	0,019	-0,085
-232,030	83,564	0,088	0,069
-231,015	-200,000	-0,007	0,042
-230,000	-200,000	-0,011	-0,204
-228,986	-15,939	0,044	-0,020
-227,971	-73,855	-0,123	0,032
-226,957	-71,085	0,050	0,014
-225,942	57,823	-0,053	0,037
-224,927	8,371	0,068	-0,037
-223,913	47,114	-0,055	0,037
-222,898	-200,000	0,011	-0,162
-221,884	-200,000	-0,036	-0,129
-220,869	-111,183	0,136	-0,020
-219,855	-200,000	0,030	0,098
-218,840	-19,601	0,105	-0,047
-217,825	456,173	0,064	0,102
-216,811	88,928	0,084	-0,067
-215,796	383,518	-0,128	-0,191
-214,782	209,224	-0,049	-0,055
-213,767	254,449	0,076	0,094
-212,752	185,798	0,090	0,097
-211,738	24,359	0,100	0,060
-210,723	406,858	0,064	0,098
-209,709	-65,615	-0,073	0,021
-208,694	-200,000	-0,008	0,089
-207,679	-133,101	-0,041	0,004
-206,665	-200,000	-0,015	0,128
-205,650	-23,916	0,091	0,039
-204,636	440,431	-0,033	0,052
-203,621	546,848	-0,097	0,168
-202,606	-200,000	0,009	0,050
-201,592	-125,263	-0,073	0,008
-200,577	326,532	-0,032	-0,044
-199,563	-172,123	0,094	-0,002
-198,548	11,465	0,077	0,043
-197,533	-200,000	0,010	0,084
-196,519	-200,000	0,022	0,217
-195,504	109,330	-0,049	-0,042
-194,490	513,378	-0,048	0,080
-193,475	731,733	-0,043	-0,083
-192,460	-108,595	-0,118	0,018
-191,446	21,376	-0,100	-0,058
-190,431	-200,000	-0,003	-0,109
-189,417	800,000	-0,028	-0,066
-188,402	581,354	0,036	-0,064
-187,387	-171,621	-0,060	-0,001
-186,373	-200,000	-0,018	-0,150
-185,358	-109,542	0,152	-0,023
-184,344	123,613	-0,033	-0,030
-183,329	496,673	0,072	0,120
-182,315	800,000	0,039	0,118
-181,300	-55,491	-0,155	0,050
-180,285	-200,000	-0,002	-0,024
-179,271	92,905	-0,083	0,068
-178,256	-200,000	-0,011	-0,113
-177,242	408,746	-0,047	0,072
-176,227	156,009	0,054	-0,054
-175,212	8,902	0,196	0,106
-174,198	262,145	-0,112	0,141
-173,183	133,648	-0,038	0,036
-172,169	305,453	0,007	-0,009
-171,154	195,271	0,082	-0,090
-170,139	800,000	0,087	0,218
-169,125	-200,000	0,002	0,118
-168,110	800,000	0,033	0,101
-167,096	-131,665	-0,067	0,006
-166,081	-200,000	0,023	-0,079
-165,066	800,000	0,026	-0,059
-164,052	-29,470	-0,091	0,037
-163,037	770,438	0,039	-0,077
-162,023	370,892	-0,081	-0,118
-161,008	47,496	0,125	0,084
-159,993	211,100	-0,040	0,045
-158,979	41,313	0,142	0,092
-157,964	397,111	-0,011	-0,016
-156,950	-120,116	-0,030	0,004
-155,935	33,467	-0,096	0,060
-154,920	-200,000	-0,000	0,164
-153,906	254,416	0,081	0,099
-152,891	100,569	-0,053	-0,044
-151,877	-97,963	-0,098	0,018
-150,862	4,486	0,077	-0,041
-149,847	-69,111	-0,037	-0,010
-148,833	274,181	0,034	0,044
-147,818	-164,187	0,169	0,005
-146,804	122,619	-0,115	0,104
-145,789	493,427	0,046	-0,077
-144,775	-200,000	-0,014	-0,052
-143,760	800,000	-0,011	-0,024
-142,745	800,000	-0,068	-0,156
-141,731	64,965	0,078	0,057
-140,716	-84,598	-0,076	-0,017
-139,702	-78,989	0,102	-0,025
-138,687	205,689	0,023	0,026
-137,672	748,105	-0,032	0,063
-136,658	-26,910	-0,102	0,043
-135,643	427,629	-0,119	0,185
-134,629	-200,000	-0,006	0,052
-133,614	85,586	-0,124	0,098
-132,599	538,351	0,050	0,085
-131,585	-102,230	-0,057	0,010
-130,570	245,341	0,057	-0,070
-129,556	-33,102	-0,087	-0,035
-128,541	303,583	-0,059	0,079
-127,526	16,822	-0,066	-0,037
-126,512	87,083	-0,174	-0,138
-125,497	800,000	0,015	0,045
-124,483	-162,887	0,082	0,003
-123,468	32,917	0,041	0,025
-122,453	-200,000	-0,038	-0,138
-121,439	-200,000	-0,016	0,074
-120,424	-124,456	0,127	0,014
