DTS Sentinel unit serial number:	SN410029Multiplexer serial number:	ORYXHardware model number:	OX2-SRSoftware version number:	ORYX F/W v4,00 Oryx Data Collector v3.7.2.0data status	okinstallation	B6 Nyhavnadifferential loss correction	single-endedforward channel	channel 2reverse channel	N/Adate	2023/12/09time	03:15:08forward acquisition time	300,00reverse acquisition time	0,00gamma	499,1914k internal	0,3154k external	0,3154temperature offset calibration	1,0000default loss term (dB/km)	0,3820temperature slope calibration	1,0000multiplexer offset coefficient	1,0000multiplexer slope coefficient	1,0000fibre end	0,00T internal ref (°C)	16,25T ext. ref 1 (°C)	0,17T ext. ref 2 (°C)	0,16length (m)	temperature (°C)	Stokes	anti-Stokes-744,400	-34,316	0,113	0,046
-743,385	-176,217	-0,400	-0,008
-742,371	40,748	0,049	0,032
-741,356	-164,223	-0,285	0,009
-740,342	-200,000	0,037	0,133
-739,327	-120,322	-0,472	0,059
-738,312	-14,724	0,115	-0,054
-737,298	-41,987	-0,413	-0,155
-736,283	-62,443	0,157	0,048
-735,269	-41,625	-0,305	0,115
-734,254	-103,824	-0,121	0,021
-733,239	60,060	-0,344	-0,250
-732,225	-76,695	0,227	-0,058
-731,210	-200,000	0,016	0,071
-730,196	496,598	0,061	-0,104
-729,181	20,589	0,077	0,046
-728,167	13,349	-0,092	0,052
-727,152	-200,000	-0,004	-0,056
-726,137	-123,827	-0,073	0,008
-725,123	800,000	0,022	0,051
-724,108	-20,217	-0,052	0,024
-723,094	531,876	0,016	-0,028
-722,079	181,361	-0,057	-0,062
-721,064	343,701	-0,019	-0,028
-720,050	419,683	0,017	0,028
-719,035	-200,000	-0,007	-0,154
-718,021	479,063	-0,036	-0,060
-717,006	65,103	-0,089	-0,067
-715,991	-200,000	0,017	-0,171
-714,977	-77,599	-0,216	0,055
-713,962	-59,741	0,202	-0,063
-712,948	21,330	-0,115	-0,069
-711,933	383,659	-0,060	-0,091
-710,918	-200,000	0,031	-0,132
-709,904	224,942	-0,072	-0,086
-708,889	16,832	-0,071	0,041
-707,875	86,005	-0,033	-0,027
-706,860	26,696	0,056	-0,035
-705,845	-5,894	0,087	0,044
-704,831	-4,393	-0,103	0,052
-703,816	345,018	-0,025	0,036
-702,802	-200,000	-0,005	-0,102
-701,787	-6,107	-0,040	0,020
-700,772	-190,391	-0,082	0,001
-699,758	102,708	-0,039	0,034
-698,743	719,665	0,056	-0,110
-697,729	133,064	0,098	-0,094
-696,714	800,000	0,028	-0,063
-695,699	17,377	-0,043	0,025
-694,685	800,000	-0,026	-0,072
-693,670	473,637	-0,075	-0,125
-692,656	29,621	0,134	0,084
-691,641	-200,000	0,000	0,015
-690,627	-200,000	0,031	0,135
-689,612	-200,000	0,007	-0,031
-688,597	253,524	-0,058	-0,073
-687,583	99,296	-0,044	-0,038
-686,568	-91,872	-0,138	-0,029
-685,554	-25,288	-0,044	-0,019
-684,539	-200,000	-0,003	0,175
-683,524	238,287	0,095	0,117
-682,510	-82,249	-0,114	0,027
-681,495	-107,107	-0,127	0,020
-680,481	-200,000	0,017	-0,104
-679,466	596,600	0,048	-0,089
-678,451	395,412	0,054	-0,084
-677,437	343,248	0,017	-0,024
-676,422	-180,224	0,179	-0,003
-675,408	-200,000	-0,011	0,053
-674,393	-200,000	-0,005	0,027
-673,378	208,407	-0,039	0,045
-672,364	99,069	0,082	-0,070
-671,349	800,000	-0,059	0,133
-670,335	-54,173	0,052	-0,017
-669,320	-29,153	-0,058	-0,024
-668,305	216,081	0,104	0,121
-667,291	-5,092	-0,053	-0,027
-666,276	8,426	0,043	0,024
-665,262	800,000	0,044	-0,122
-664,247	-176,138	-0,045	0,001
-663,232	-200,000	0,043	0,162
-662,218	-149,801	-0,070	-0,004
-661,203	-59,617	0,112	-0,035
-660,189	800,000	-0,071	0,151
-659,174	-200,000	-0,027	-0,138
-658,159	760,621	-0,042	-0,084
-657,145	315,065	-0,054	0,076
-656,130	-113,183	-0,123	0,018
-655,116	800,000	-0,034	0,110
-654,101	-19,303	-0,107	0,048
-653,086	-200,000	-0,025	0,142
-652,072	243,069	0,077	-0,095
-651,057	326,255	-0,085	-0,120
-650,043	-29,095	-0,104	-0,044
-649,028	-95,598	0,138	0,027
-648,014	112,778	0,039	-0,035
-646,999	-79,512	-0,099	-0,024
-645,984	9,045	-0,100	0,055
-644,970	-68,240	0,069	0,020
-643,955	22,846	-0,058	-0,035
-642,941	232,568	0,010	-0,012
-641,926	-200,000	-0,001	-0,042
-640,911	800,000	0,039	0,099
-639,897	546,672	-0,032	0,057
-638,882	800,000	-0,069	0,155
-637,868	-200,000	0,001	0,007
-636,853	156,577	-0,064	-0,065
-635,838	452,291	-0,102	-0,167
-634,824	-110,530	-0,141	0,021
-633,809	-147,023	-0,049	0,003
-632,795	276,503	-0,017	0,023
-631,780	36,092	0,030	-0,020
-630,765	445,621	0,031	0,050
-629,751	170,107	-0,133	0,140
-628,736	227,435	-0,033	0,039
-627,722	42,683	-0,079	-0,053
-626,707	800,000	-0,038	-0,088
-625,692	321,993	0,056	-0,079
-624,678	-200,000	0,022	0,104
-623,663	-41,472	-0,125	-0,047
-622,649	800,000	0,040	-0,099
-621,634	397,430	-0,141	-0,218
-620,619	800,000	-0,073	-0,165
-619,605	800,000	-0,010	-0,030
-618,590	350,664	-0,093	0,135
-617,576	82,041	0,065	0,051
-616,561	350,983	0,044	-0,064
-615,546	-200,000	0,009	0,030
-614,532	159,319	-0,026	-0,026
-613,517	-200,000	0,040	-0,149
-612,503	482,203	0,064	-0,107
-611,488	-119,518	-0,080	0,010
-610,474	-38,091	-0,100	0,039
-609,459	800,000	-0,026	0,058
-608,444	-98,354	-0,133	-0,025
-607,430	378,804	-0,093	-0,140
-606,415	-199,615	-0,069	-0,000
-605,401	-200,000	0,006	0,120
-604,386	356,771	0,076	0,112
-603,371	103,916	0,021	-0,018
-602,357	-200,000	-0,001	-0,028
-601,342	87,797	-0,098	0,080
-600,328	33,640	-0,094	-0,060
-599,313	-128,156	-0,068	0,007
-598,298	-88,869	-0,070	0,015
-597,284	385,967	-0,071	0,108
-596,269	8,775	0,067	0,037
-595,255	-200,000	0,010	0,095
-594,240	-94,417	-0,046	-0,009
-593,225	-200,000	-0,005	-0,093
-592,211	79,280	-0,107	-0,084
-591,196	800,000	0,066	-0,157
-590,182	35,374	0,030	-0,019
-589,167	346,926	-0,063	-0,091
-588,152	13,346	0,114	-0,065
-587,138	26,754	-0,071	-0,043
-586,123	-124,131	-0,112	-0,013
-585,109	78,719	-0,098	-0,077
-584,094	-200,000	0,016	-0,130
-583,079	106,646	0,129	0,112
-582,065	-44,141	-0,098	0,036
-581,050	196,086	-0,097	-0,108
-580,036	340,938	-0,003	-0,004
-579,021	-200,000	0,013	-0,091
-578,006	800,000	-0,034	0,075
-576,992	-161,107	0,078	-0,003
-575,977	-43,897	0,157	0,058
-574,963	26,848	-0,098	-0,060
-573,948	114,361	0,081	0,072
-572,934	800,000	0,022	-0,059
-571,919	800,000	-0,030	0,062
-570,904	-5,466	-0,042	0,021
-569,890	-200,000	-0,023	-0,075
-568,875	-109,995	0,076	0,012
-567,861	-128,513	0,125	-0,013
-566,846	-200,000	-0,053	0,199
-565,831	81,730	0,084	0,067
-564,817	136,074	0,037	-0,036
-563,802	-200,000	0,007	-0,033
-562,788	97,894	-0,086	-0,073
-561,773	401,393	-0,028	-0,043
-560,758	-200,000	-0,003	-0,158
-559,744	448,661	-0,019	-0,030
-558,729	800,000	-0,047	0,117
-557,715	-86,479	-0,103	-0,023
-556,700	-87,968	0,079	-0,017
-555,685	161,422	-0,112	0,115
-554,671	-63,161	0,067	-0,020
-553,656	-200,000	-0,035	0,119
-552,642	-22,027	0,064	-0,028
-551,627	0,730	-0,063	-0,033
-550,612	167,216	-0,119	0,123
-549,598	787,933	-0,056	0,112
-548,583	-170,518	-0,039	-0,001
-547,569	800,000	-0,011	0,030
-546,554	-200,000	0,010	0,183
-545,539	-45,970	0,122	0,044
-544,525	-32,381	-0,091	0,037
-543,510	192,620	-0,139	-0,154
-542,496	508,375	-0,053	-0,090
-541,481	171,100	0,018	0,019
-540,466	91,477	0,073	-0,060
-539,452	59,703	0,066	0,048
-538,437	-76,027	0,091	0,023
-537,423	-139,240	0,018	0,001
-536,408	14,119	-0,047	0,027
-535,393	582,922	0,031	-0,057
-534,379	32,695	-0,086	-0,055
-533,364	641,559	-0,070	-0,132
-532,350	-100,878	0,194	-0,035
-531,335	69,778	0,162	0,122
-530,321	368,521	-0,053	-0,079
-529,306	497,252	0,036	0,060
-528,291	-22,370	0,103	0,045
-527,277	392,080	-0,045	-0,069
-526,262	10,532	0,037	0,021
-525,248	-49,984	-0,150	-0,052
-524,233	11,620	0,069	0,039
-523,218	438,317	-0,058	0,094
-522,204	-130,373	-0,095	-0,009
-521,189	800,000	-0,015	-0,033
-520,175	71,440	-0,094	-0,072
-519,160	-200,000	0,011	0,047
-518,145	26,626	0,179	0,109
-517,131	-61,570	0,214	0,065
-516,116	800,000	-0,058	-0,125
-515,102	64,623	-0,040	-0,030
-514,087	-1,250	0,028	-0,014
-513,072	-5,918	-0,121	0,061
-512,058	-65,414	-0,168	-0,049
-511,043	104,422	-0,079	0,068
-510,029	-93,979	0,228	-0,045
-509,014	-83,010	0,073	-0,017
-507,999	319,349	-0,036	-0,050
-506,985	21,798	-0,087	0,052
-505,970	153,458	-0,013	0,013
-504,956	-165,246	-0,032	-0,001
-503,941	-33,500	0,106	-0,042
-502,926	-200,000	-0,014	0,055
-501,912	187,269	0,070	0,077
-500,897	-93,554	0,145	-0,029
-499,883	199,271	-0,141	-0,158
-498,868	459,727	-0,029	-0,048
-497,853	-43,606	0,044	-0,016
-496,839	82,936	-0,026	0,021
-495,824	75,461	0,096	0,074
-494,810	-200,000	-0,037	-0,191
-493,795	-200,000	-0,014	-0,139
-492,781	545,214	-0,047	-0,082
-491,766	-70,069	-0,132	-0,037
-490,751	485,389	-0,008	-0,014
-489,737	589,039	-0,041	0,074
-488,722	800,000	-0,012	-0,029
-487,708	665,769	0,058	-0,110
-486,693	229,038	0,069	0,083
-485,678	-71,277	-0,099	0,027
-484,664	-155,699	-0,192	0,009
-483,649	-200,000	-0,033	-0,116
-482,635	800,000	-0,056	-0,130
-481,620	-200,000	0,028	-0,137
-480,605	121,974	0,110	0,100
-479,591	-61,742	-0,101	0,031
-478,576	-200,000	0,000	-0,005
-477,562	-80,720	0,090	-0,022
-476,547	800,000	0,041	-0,110
-475,532	-58,285	-0,038	-0,012
-474,518	186,063	-0,030	-0,033
-473,503	-16,667	0,026	-0,012
-472,489	-38,651	0,189	0,073
-471,474	-191,760	-0,124	-0,001
-470,459	23,809	0,072	0,043
-469,445	-5,785	-0,089	-0,044
-468,430	-173,060	-0,090	-0,002
-467,416	-200,000	0,006	-0,082
-466,401	-73,538	0,146	-0,039
-465,386	-25,198	0,112	0,048
-464,372	-200,000	-0,002	0,025
-463,357	41,826	-0,014	-0,009
-462,343	349,174	-0,065	-0,093
-461,328	-200,000	-0,005	0,116
-460,313	-200,000	-0,001	0,125
-459,299	551,794	0,007	0,012
-458,284	-142,207	-0,016	-0,001
-457,270	601,150	-0,038	-0,070
-456,255	800,000	-0,058	-0,145
-455,241	800,000	-0,060	-0,156
-454,226	-107,855	0,084	0,013
-453,211	171,644	-0,082	0,086
-452,197	800,000	0,058	0,140
-451,182	420,251	-0,061	-0,095
-450,168	-44,748	0,141	-0,051
-449,153	800,000	0,025	-0,070
-448,138	120,254	-0,129	-0,117
-447,124	414,344	-0,050	0,077
-446,109	37,692	0,091	0,059
-445,095	75,640	0,066	0,051
-444,080	334,188	0,033	0,046
-443,065	150,258	-0,209	0,207
-442,051	44,687	-0,117	0,079
-441,036	82,913	0,083	-0,066
-440,022	32,213	-0,051	-0,032
-439,007	174,125	0,042	0,045
-437,992	-200,000	0,000	0,054
-436,978	43,111	-0,072	0,048
-435,963	115,146	0,056	0,049
-434,949	127,284	0,027	0,025
-433,934	-22,501	-0,022	-0,010
-432,919	173,671	-0,099	0,105
-431,905	-94,112	-0,165	-0,033
-430,890	3,335	-0,073	-0,038
-429,876	53,884	0,012	0,008
-428,861	-200,000	0,007	0,185
-427,846	33,720	-0,090	0,057
-426,832	800,000	-0,033	-0,082
-425,817	-200,000	-0,013	-0,070
-424,803	-79,969	-0,120	-0,029
-423,788	304,754	-0,009	0,013
-422,773	-22,208	0,086	-0,038
-421,759	800,000	0,045	-0,096
-420,744	-175,307	0,122	-0,002
-419,730	-200,000	-0,051	-0,170
-418,715	800,000	0,014	-0,035
-417,701	-200,000	-0,028	0,206
-416,686	-118,814	0,041	0,005
-415,671	-103,657	-0,134	0,023
-414,657	-200,000	-0,007	-0,070
-413,642	800,000	0,016	-0,050
-412,628	-36,091	0,099	0,039
-411,613	-42,501	0,026	0,010
-410,598	324,232	0,034	-0,047
-409,584	10,409	0,144	0,080
-408,569	21,004	0,080	0,047
-407,555	-147,692	-0,106	-0,006
-406,540	-200,000	0,004	0,149
-405,525	-200,000	-0,021	-0,076
-404,511	-76,532	-0,131	0,033
-403,496	764,999	-0,050	0,099
-402,482	2,023	0,080	-0,042
-401,467	-7,540	0,118	0,058
-400,452	-37,281	0,086	0,033
-399,438	38,217	0,017	0,011
-398,423	-200,000	0,023	-0,173
-397,409	-52,926	0,026	-0,009
-396,394	450,769	0,061	0,099
-395,379	-200,000	-0,006	0,074
-394,365	227,530	0,156	0,185
-393,350	-200,000	-0,002	0,033
-392,336	417,748	0,108	0,169
-391,321	-20,450	-0,092	0,041
-390,306	31,092	-0,105	0,066
-389,292	-96,887	0,126	0,024
-388,277	-3,108	-0,065	-0,033
-387,263	589,667	0,063	-0,113
-386,248	800,000	0,030	0,083
-385,233	131,435	0,127	0,119
-384,219	30,541	-0,055	0,034
-383,204	-22,247	-0,090	-0,039
-382,190	-200,000	0,006	0,034
-381,175	-200,000	-0,001	-0,148
-380,160	-86,463	0,087	-0,019
-379,146	81,870	0,027	-0,021
-378,131	91,673	0,034	-0,028
-377,117	46,370	0,078	-0,052
-376,102	-56,480	-0,026	0,008
-375,088	800,000	0,062	-0,138
-374,073	-200,000	-0,001	-0,016
-373,058	-45,885	0,078	-0,028
-372,044	112,516	0,146	0,128
-371,029	386,077	-0,071	0,107
-370,015	-200,000	-0,043	0,154
-369,000	-12,668	-0,129	0,061
-367,985	800,000	-0,029	-0,067
-366,971	-200,000	0,031	-0,113
-365,956	192,611	0,147	0,162
-364,942	800,000	0,046	0,116
-363,927	75,794	-0,012	0,009
-362,912	18,059	0,004	0,002
-361,898	197,274	-0,076	0,084
-360,883	88,754	-0,025	-0,020
-359,869	162,241	0,036	-0,037
-358,854	83,617	0,080	-0,064
-357,839	-67,302	-0,063	0,018
-356,825	800,000	0,031	0,100
-355,810	-200,000	0,011	0,138
-354,796	-200,000	0,018	-0,117
-353,781	79,187	-0,110	0,086
-352,766	328,355	-0,028	-0,039
-351,752	-132,322	0,051	-0,005
-350,737	96,102	0,007	0,005
-349,723	82,522	-0,046	0,036
-348,708	-200,000	-0,021	0,131
-347,693	-139,586	-0,033	-0,002
-346,679	-161,029	-0,115	0,004
-345,664	-85,327	0,083	0,019
-344,650	304,678	0,032	-0,043
-343,635	-68,266	0,132	0,037
-342,620	800,000	0,034	0,093
-341,606	263,476	-0,050	-0,063
-340,591	734,252	-0,028	-0,054
-339,577	-200,000	-0,012	-0,062
-338,562	236,480	0,017	-0,020
-337,548	38,482	0,048	0,031
-336,533	35,932	0,137	0,087
-335,518	-110,843	0,145	-0,021
-334,504	800,000	0,008	-0,020
-333,489	290,757	0,044	-0,058
-332,475	657,112	-0,060	-0,113
-331,460	-56,075	0,057	0,018
-330,445	438,312	0,015	0,023
-329,431	499,885	0,021	-0,036
-328,416	800,000	0,029	-0,082
-327,402	393,425	0,073	-0,111
-326,387	-200,000	0,020	0,133
-325,372	800,000	0,016	-0,040
-324,358	496,464	0,068	-0,114
-323,343	800,000	-0,022	-0,052
-322,329	393,596	0,050	0,076
-321,314	655,111	-0,078	-0,146
-320,299	-38,727	0,112	0,043
-319,285	753,279	-0,024	0,047
-318,270	304,048	0,052	-0,070
-317,256	52,888	0,032	-0,022
-316,241	-200,000	0,010	-0,083
-315,226	87,516	-0,028	0,022
-314,212	562,883	0,011	0,019
-313,197	-200,000	-0,015	-0,056
-312,183	-200,000	-0,002	-0,083
-311,168	-130,169	-0,182	0,018
-310,153	-200,000	0,008	-0,061
-309,139	800,000	0,030	-0,094
-308,124	800,000	-0,026	-0,060
-307,110	94,325	0,121	0,100
-306,095	714,439	0,079	0,153
-305,080	296,096	0,045	0,060
-304,066	772,657	-0,014	-0,029
-303,051	-200,000	0,005	0,098
-302,037	98,868	-0,019	0,016
-301,022	-200,000	0,030	-0,116
-300,008	-200,000	-0,191	-0,000
-298,993	50,363	0,125	0,085
-297,978	-200,000	0,076	-0,000
-296,964	-12,010	-0,049	0,023
-295,949	-59,523	-0,106	-0,033
-294,935	127,190	-0,135	-0,124
-293,920	-11,215	0,085	-0,040
-292,905	212,715	-0,037	0,043
-291,891	362,149	0,068	0,099
-290,876	38,580	-0,139	0,090
-289,862	103,333	-0,085	-0,072
-288,847	737,731	0,074	-0,145
-287,832	166,455	0,024	-0,025
-286,818	800,000	0,007	0,019
-285,803	-200,000	0,023	0,104
-284,789	60,124	0,127	0,091
-283,774	527,949	-0,057	0,098
-282,759	-200,000	0,030	0,123
-281,745	-200,000	-0,031	0,121
-280,730	-200,000	0,040	-0,184
-279,716	-200,000	0,001	-0,022
-278,701	147,648	0,092	0,090
-277,686	99,024	0,104	0,087
-276,672	800,000	-0,045	-0,104
-275,657	-176,366	0,110	0,002
-274,643	381,635	0,024	0,035
-273,628	-47,890	-0,136	-0,048
-272,613	24,121	-0,084	0,050
-271,599	349,310	0,038	0,054
-270,584	178,686	0,048	0,051
-269,570	54,002	0,104	-0,072
-268,555	800,000	0,033	0,077
-267,540	-200,000	-0,006	-0,128
-266,526	332,293	-0,094	-0,131
-265,511	-111,045	0,143	-0,021
-264,497	800,000	0,048	-0,101
-263,482	316,987	-0,021	0,029
-262,467	232,096	0,078	0,093
-261,453	-200,000	-0,011	-0,149
-260,438	-59,071	0,121	-0,037
-259,424	800,000	0,039	-0,117
-258,409	44,518	0,165	-0,110
-257,395	118,577	-0,016	-0,014
-256,380	-78,127	0,085	0,021
-255,365	800,000	-0,009	0,023
-254,351	-200,000	-0,005	-0,068
-253,336	93,184	-0,025	-0,021
-252,322	800,000	0,040	-0,082
-251,307	519,162	-0,034	-0,058
-250,292	-155,273	-0,105	0,005
-249,278	-68,325	0,053	-0,015
-248,263	203,342	0,107	0,120
-247,249	-194,633	-0,072	0,000
-246,234	108,006	-0,146	-0,126
-245,219	369,637	-0,073	-0,107
-244,205	14,366	0,065	-0,037
-243,190	-14,317	0,109	0,051
-242,176	-200,000	0,022	0,096
-241,161	800,000	-0,031	0,074
-240,146	-200,000	0,024	0,198
-239,132	-200,000	-0,007	0,027
-238,117	22,426	-0,086	-0,051
-237,103	-55,707	0,047	0,015
-236,088	800,000	0,022	0,046
-235,073	-200,000	-0,006	0,073
-234,059	142,766	0,049	0,048
-233,044	-200,000	0,033	0,188
-232,030	-135,229	0,029	-0,002
-231,015	-200,000	0,002	0,125
-230,000	314,628	0,058	-0,079
-228,986	-200,000	0,003	-0,052
-227,971	409,965	-0,073	0,113
-226,957	-57,518	0,111	0,035
-225,942	134,331	-0,075	0,070
-224,927	221,746	-0,106	-0,123
-223,913	203,996	0,018	0,021
-222,898	91,264	-0,075	-0,061
-221,884	194,427	-0,054	-0,060
-220,869	636,062	0,074	0,137
-219,855	800,000	-0,033	0,071
-218,840	800,000	0,063	0,130
-217,825	-200,000	0,010	0,073
-216,811	89,020	-0,101	0,081
-215,796	-200,000	-0,025	-0,089
-214,782	800,000	-0,013	0,037
-213,767	-182,204	0,164	-0,002
-212,752	420,198	0,054	-0,083
-211,738	23,752	0,091	-0,054
-210,723	-36,127	-0,012	0,005
-209,709	-200,000	0,001	0,142
-208,694	-136,711	0,032	0,003
-207,679	204,739	0,082	-0,092
-206,665	-26,725	0,182	-0,077
-205,650	-2,683	0,105	-0,053
-204,636	-200,000	0,002	0,013
-203,621	-164,165	0,099	0,003
-202,606	-200,000	-0,013	-0,117
-201,592	24,128	0,016	-0,010
-200,577	450,121	-0,074	0,118
-199,563	800,000	0,047	-0,117
-198,548	113,335	0,040	-0,035
-197,533	-45,191	-0,108	0,038
-196,519	315,826	0,063	0,086
-195,504	189,927	0,114	0,124
-194,490	187,518	0,053	-0,058
-193,475	800,000	-0,006	0,017
-192,460	-200,000	-0,002	-0,030
-191,446	-25,763	-0,125	-0,053
-190,431	524,120	0,023	0,040
-189,417	-98,410	-0,103	0,019
-188,402	158,800	-0,122	0,123
-187,387	-200,000	-0,001	-0,099
-186,373	420,670	-0,053	-0,082
-185,358	-56,662	0,168	0,054
-184,344	42,455	0,079	-0,052
-183,329	-200,000	-0,021	0,166
-182,315	89,671	-0,065	0,052
-181,300	500,447	-0,024	-0,039
-180,285	-29,484	-0,077	0,032
-179,271	-200,000	-0,031	-0,169
-178,256	76,432	0,078	0,059
-177,242	-85,451	-0,071	-0,016
-176,227	-77,514	-0,066	-0,016
-175,212	57,725	0,030	-0,021
-174,198	-36,448	-0,098	-0,038
-173,183	800,000	-0,018	0,055
-172,169	-135,046	0,010	-0,001
-171,154	-51,618	-0,053	0,018
-170,139	-200,000	-0,022	-0,083
-169,125	174,696	0,035	0,036
-168,110	-200,000	0,008	0,061
-167,096	-200,000	-0,013	0,076
-166,081	-18,358	-0,063	-0,028
-165,066	558,258	0,032	0,057
-164,052	-200,000	0,018	-0,124
-163,037	346,435	-0,019	0,027
-162,023	-159,378	0,075	-0,003
-161,008	-152,301	-0,091	0,005
-159,993	-200,000	-0,028	-0,174
-158,979	136,894	0,069	-0,065
-157,964	-200,000	-0,027	-0,101
-156,950	-54,019	-0,104	0,034
-155,935	145,593	0,080	0,077
-154,920	800,000	0,045	0,117
-153,906	-200,000	-0,002	-0,006
-152,891	-200,000	-0,087	-0,000
-151,877	-147,723	0,179	0,011
-150,862	-200,000	-0,003	-0,043
-149,847	74,733	0,111	-0,084
-148,833	98,551	0,089	0,074
-147,818	-183,487	0,166	0,002
-146,804	-154,968	0,114	-0,005
-145,789	172,265	-0,095	0,099
-144,775	151,015	0,030	-0,030
-143,760	210,220	-0,125	-0,142
-142,745	-69,452	-0,077	0,021
-141,731	345,022	0,091	0,130
-140,716	-200,000	0,026	-0,164
-139,702	189,883	0,046	-0,050
-138,687	-41,841	0,074	0,027
-137,672	-105,001	0,091	-0,015
-136,658	-104,680	-0,056	0,009
-135,643	-62,687	-0,095	-0,028
-134,629	-200,000	0,007	-0,164
-133,614	-200,000	0,002	-0,044
-132,599	-79,215	0,053	0,013
-131,585	-200,000	0,020	-0,110
-130,570	-200,000	-0,005	-0,075
-129,556	-200,000	-0,037	-0,119
-128,541	800,000	-0,086	-0,174
-127,526	488,818	0,071	-0,118
-126,512	800,000	-0,047	-0,114
-125,497	-94,947	0,161	-0,031
-124,483	-200,000	0,004	-0,099
-123,468	25,485	-0,096	-0,058
-122,453	-200,000	0,015	-0,118
-121,439	-200,000	0,007	0,072
-120,424	198,862	-0,014	-0,015
-119,410	248,465	-0,049	-0,060
-118,395	800,000	-0,047	0,136
