DTS Sentinel unit serial number:	SN410029Multiplexer serial number:	ORYXHardware model number:	OX2-SRSoftware version number:	ORYX F/W v4,00 Oryx Data Collector v3.7.2.0data status	okinstallation	B6 Nyhavnadifferential loss correction	single-endedforward channel	channel 2reverse channel	N/Adate	2023/12/09time	09:45:08forward acquisition time	300,00reverse acquisition time	0,00gamma	499,1914k internal	0,3139k external	0,3139temperature offset calibration	1,0000default loss term (dB/km)	0,3820temperature slope calibration	1,0000multiplexer offset coefficient	1,0000multiplexer slope coefficient	1,0000fibre end	0,00T internal ref (°C)	18,49T ext. ref 1 (°C)	2,10T ext. ref 2 (°C)	2,10length (m)	temperature (°C)	Stokes	anti-Stokes-744,400	800,000	-0,023	0,054
-743,385	-127,689	-0,162	0,017
-742,371	556,562	0,068	0,122
-741,356	-161,089	-0,317	-0,012
-740,342	-96,246	0,039	-0,008
-739,327	-137,996	-0,196	0,016
-738,312	274,318	0,078	-0,103
-737,298	-163,614	-0,292	-0,010
-736,283	-117,547	0,147	0,019
-735,269	-29,351	-0,146	0,062
-734,254	116,181	0,025	0,023
-733,239	-14,856	-0,394	-0,187
-732,225	39,123	0,202	0,133
-731,210	-200,000	-0,003	-0,012
-730,196	213,484	-0,100	-0,117
-729,181	62,733	-0,079	0,059
-728,167	-200,000	0,012	0,130
-727,152	-200,000	0,007	0,073
-726,137	530,795	0,077	-0,135
-725,123	-200,000	0,012	0,046
-724,108	55,021	-0,090	-0,065
-723,094	502,670	0,041	0,070
-722,079	-111,638	-0,120	-0,018
-721,064	800,000	0,023	-0,056
-720,050	3,771	0,080	0,043
-719,035	-163,914	-0,125	0,004
-718,021	-200,000	0,010	0,062
-717,006	200,875	-0,068	-0,078
-715,991	800,000	-0,023	-0,050
-714,977	385,297	0,095	-0,145
-713,962	-103,300	0,118	-0,020
-712,948	365,804	-0,052	0,079
-711,933	188,476	-0,064	0,072
-710,918	-100,292	-0,052	-0,009
-709,904	800,000	-0,062	-0,179
-708,889	-200,000	-0,005	-0,069
-707,875	800,000	-0,046	-0,134
-706,860	-22,591	-0,060	-0,027
-705,845	-86,336	-0,052	-0,012
-704,831	37,168	-0,044	0,029
-703,816	-108,291	0,107	-0,017
-702,802	-200,000	0,000	-0,082
-701,787	-200,000	0,022	-0,144
-700,772	-70,062	0,094	0,026
-699,758	41,285	0,022	0,014
-698,743	-115,263	-0,032	0,004
-697,729	-134,679	-0,038	0,003
-696,714	214,082	-0,062	0,073
-695,699	44,199	-0,051	-0,034
-694,685	-200,000	-0,001	-0,068
-693,670	-200,000	-0,002	-0,017
-692,656	-35,268	-0,008	0,003
-691,641	-118,678	0,171	-0,022
-690,627	-200,000	-0,006	-0,094
-689,612	-200,000	0,024	-0,156
-688,597	800,000	-0,056	0,167
-687,583	-200,000	0,018	-0,103
-686,568	366,532	-0,102	-0,152
-685,554	-200,000	0,021	-0,109
-684,539	-136,889	-0,072	0,006
-683,524	130,744	-0,088	-0,084
-682,510	41,719	-0,081	0,054
-681,495	-200,000	0,002	-0,104
-680,481	-200,000	-0,026	-0,136
-679,466	62,539	-0,119	-0,088
-678,451	114,321	-0,085	0,076
-677,437	289,712	0,054	-0,073
-676,422	800,000	-0,017	0,044
-675,408	323,140	0,095	0,134
-674,393	800,000	-0,019	-0,061
-673,378	192,674	0,174	-0,195
-672,364	800,000	-0,048	0,115
-671,349	237,756	0,108	-0,132
-670,335	-72,516	-0,070	-0,019
-669,320	-74,102	0,063	0,017
-668,305	101,472	-0,042	-0,036
-667,291	-124,986	-0,128	0,014
-666,276	-104,169	-0,147	0,025
-665,262	-13,338	-0,075	0,036
-664,247	60,592	0,073	-0,054
-663,232	167,785	-0,015	0,016
-662,218	83,139	0,040	0,032
-661,203	-200,000	-0,016	0,144
-660,189	-180,063	-0,027	-0,000
-659,174	188,471	-0,055	0,061
-658,159	196,166	0,046	-0,052
-657,145	73,518	0,038	-0,030
-656,130	394,114	-0,052	-0,080
-655,116	-96,117	0,157	0,031
-654,101	-200,000	-0,007	0,138
-653,086	18,928	0,117	-0,069
-652,072	-200,000	0,014	-0,112
-651,057	580,730	-0,038	-0,070
-650,043	46,022	0,066	0,045
-649,028	-200,000	-0,014	-0,050
-648,014	800,000	-0,030	0,062
-646,999	-200,000	-0,017	-0,223
-645,984	189,281	0,069	-0,076
-644,970	414,962	-0,026	-0,041
-643,955	129,340	0,081	-0,076
-642,941	-167,812	-0,081	0,002
-641,926	-43,790	-0,128	-0,047
-640,911	-200,000	0,039	0,141
-639,897	-200,000	0,017	0,064
-638,882	441,535	-0,067	0,109
-637,868	800,000	0,024	-0,049
-636,853	158,180	-0,057	0,058
-635,838	-200,000	-0,015	-0,148
-634,824	-200,000	-0,004	0,057
-633,809	92,823	0,074	0,062
-632,795	318,411	-0,038	0,053
-631,780	424,228	-0,031	0,050
-630,765	231,936	-0,073	0,089
-629,751	-200,000	0,012	-0,057
-628,736	-200,000	-0,016	-0,125
-627,722	421,798	-0,059	-0,094
-626,707	-200,000	-0,009	0,090
-625,692	-200,000	0,004	0,082
-624,678	-15,000	0,109	-0,051
-623,663	104,461	0,044	-0,039
-622,649	508,784	-0,085	-0,146
-621,634	-200,000	-0,013	0,078
-620,619	160,503	-0,104	-0,107
-619,605	63,260	-0,096	0,071
-618,590	256,193	0,037	-0,047
-617,576	53,460	-0,118	-0,083
-616,561	-200,000	0,016	-0,069
-615,546	89,406	-0,080	-0,066
-614,532	-104,179	-0,150	-0,025
-613,517	379,565	-0,013	-0,020
-612,503	-200,000	0,008	-0,080
-611,488	-133,691	0,109	-0,010
-610,474	537,489	0,099	0,175
-609,459	9,826	0,071	-0,040
-608,444	800,000	0,042	-0,119
-607,430	-200,000	-0,012	-0,047
-606,415	120,461	-0,105	-0,096
-605,401	-136,606	0,034	0,003
-604,386	-200,000	-0,003	-0,112
-603,371	188,094	0,097	-0,107
-602,357	55,081	-0,080	-0,057
-601,342	394,695	-0,075	0,115
-600,328	11,395	-0,134	0,076
-599,313	-26,882	-0,093	0,040
-598,298	144,938	-0,084	-0,083
-597,284	-200,000	-0,001	-0,033
-596,269	800,000	0,089	-0,189
-595,255	391,765	0,038	0,059
-594,240	800,000	-0,067	-0,143
-593,225	800,000	-0,060	-0,177
-592,211	-200,000	0,020	0,068
-591,196	12,217	-0,081	-0,046
-590,182	-200,000	0,009	0,039
-589,167	-28,382	0,044	-0,019
-588,152	63,928	-0,079	-0,058
-587,138	-8,239	-0,078	0,038
-586,123	800,000	0,013	0,032
-585,109	-200,000	-0,023	-0,120
-584,094	44,613	0,103	0,070
-583,079	800,000	0,013	0,038
-582,065	-53,770	-0,062	0,021
-581,050	66,144	0,029	-0,022
-580,036	116,362	0,028	0,025
-579,021	-112,793	-0,073	-0,011
-578,006	-200,000	-0,001	-0,020
-576,992	-13,383	0,012	-0,005
-575,977	382,862	0,021	0,032
-574,963	-200,000	0,002	-0,040
-573,948	385,796	0,057	0,088
-572,934	-122,385	0,036	-0,004
-571,919	26,655	-0,118	0,073
-570,904	-200,000	-0,008	-0,044
-569,890	615,178	-0,027	-0,050
-568,875	-91,232	0,211	-0,044
-567,861	-200,000	-0,024	0,086
-566,846	-157,952	-0,040	-0,002
-565,831	800,000	-0,035	0,078
-564,817	800,000	0,022	0,057
-563,802	143,480	0,128	-0,126
-562,788	90,379	0,061	-0,050
-561,773	218,775	0,058	-0,068
-560,758	-200,000	-0,001	-0,073
-559,744	-200,000	-0,036	0,158
-558,729	-72,163	-0,162	0,044
-557,715	52,227	0,065	0,045
-556,700	800,000	0,059	-0,165
-555,685	605,345	0,036	-0,067
-554,671	-200,000	0,010	0,103
-553,656	-36,899	0,038	0,015
-552,642	293,150	0,079	-0,107
-551,627	76,190	0,186	-0,145
-550,612	66,655	0,013	-0,010
-549,598	63,229	-0,069	-0,051
-548,583	800,000	0,037	-0,080
-547,569	-200,000	0,010	-0,038
-546,554	-19,461	-0,058	-0,027
-545,539	0,816	-0,058	-0,031
-544,525	24,014	0,053	-0,032
-543,510	-124,475	0,099	0,011
-542,496	-138,176	-0,108	0,009
-541,481	52,321	-0,149	-0,105
-540,466	-62,441	-0,027	0,008
-539,452	217,330	-0,052	-0,062
-538,437	-140,456	0,063	-0,005
-537,423	428,999	0,025	-0,039
-536,408	390,818	0,114	0,175
-535,393	108,908	0,117	0,103
-534,379	-200,000	-0,004	-0,094
-533,364	39,169	-0,071	0,046
-532,350	800,000	-0,006	0,014
-531,335	2,257	-0,038	-0,020
-530,321	-200,000	0,024	0,100
-529,306	-200,000	-0,024	0,226
-528,291	-125,545	-0,089	-0,010
-527,277	136,192	0,023	0,022
-526,262	800,000	-0,011	0,033
-525,248	-42,858	-0,034	-0,013
-524,233	386,727	0,030	-0,046
-523,218	-80,558	0,175	0,043
-522,204	800,000	-0,027	-0,056
-521,189	218,363	-0,051	-0,060
-520,175	57,977	-0,092	-0,066
-519,160	112,949	0,039	-0,035
-518,145	292,202	-0,010	0,014
-517,131	-200,000	-0,049	0,000
-516,116	-200,000	0,026	-0,153
-515,102	-200,000	-0,033	-0,111
-514,087	203,777	-0,087	0,100
-513,072	-200,000	0,005	-0,181
-512,058	-86,930	0,151	0,033
-511,043	96,990	-0,043	-0,037
-510,029	-22,532	0,133	-0,059
-509,014	278,630	0,028	-0,037
-507,999	-32,931	-0,082	0,033
-506,985	-177,078	-0,104	0,002
-505,970	-200,000	-0,014	-0,066
-504,956	-200,000	-0,033	0,180
-503,941	800,000	0,042	0,103
-502,926	-110,969	-0,108	-0,016
-501,912	-200,000	0,057	0,198
-500,897	800,000	0,028	-0,066
-499,883	-200,000	-0,014	0,077
-498,868	53,843	-0,083	-0,059
-497,853	800,000	0,012	0,029
-496,839	362,752	-0,098	0,146
-495,824	122,611	0,033	-0,030
-494,810	95,620	0,077	-0,064
-493,795	-154,275	0,113	-0,005
-492,781	41,376	-0,010	-0,007
-491,766	-200,000	0,006	-0,070
-490,751	-41,761	-0,135	-0,051
-489,737	134,478	0,029	0,028
-488,722	-17,589	0,123	0,056
-487,708	322,927	-0,126	0,177
-486,693	800,000	-0,050	0,133
-485,678	-200,000	-0,006	0,063
-484,664	268,115	-0,039	-0,050
-483,649	-92,960	0,053	-0,011
-482,635	-22,028	0,077	-0,034
-481,620	-200,000	0,014	-0,061
-480,605	-200,000	-0,045	0,157
-479,591	-3,652	0,137	0,070
-478,576	-200,000	0,009	0,055
-477,562	235,356	0,008	0,009
-476,547	800,000	0,003	0,008
-475,532	620,970	-0,060	-0,111
-474,518	-200,000	-0,022	0,096
-473,503	-102,384	0,120	0,021
-472,489	101,041	0,016	-0,013
-471,474	346,831	-0,074	-0,108
-470,459	133,181	0,056	0,053
-469,445	-83,805	-0,087	-0,020
-468,430	-64,633	-0,125	-0,037
-467,416	-177,266	0,123	0,002
-466,401	221,330	0,032	-0,038
-465,386	79,455	0,089	0,070
-464,372	-200,000	-0,012	0,045
-463,357	-100,460	-0,083	-0,015
-462,343	-200,000	0,011	0,133
-461,328	-200,000	0,011	-0,061
-460,313	41,400	0,109	-0,072
-459,299	-66,771	0,056	0,016
-458,284	16,509	-0,070	0,041
-457,270	-200,000	-0,009	0,132
-456,255	89,214	-0,060	0,049
-455,241	243,191	-0,039	0,048
-454,226	143,528	-0,054	-0,053
-453,211	-91,620	0,028	0,006
-452,197	-4,100	0,082	0,041
-451,182	531,960	0,044	0,077
-450,168	800,000	-0,037	-0,097
-449,153	-200,000	-0,035	-0,189
-448,138	800,000	-0,056	-0,166
-447,124	103,434	-0,146	-0,126
-446,109	-44,487	-0,022	-0,008
-445,095	138,597	0,052	-0,050
-444,080	-87,105	-0,126	0,028
-443,065	-200,000	0,037	0,161
-442,051	541,671	-0,039	0,069
-441,036	-200,000	-0,015	0,091
-440,022	-145,871	-0,057	-0,004
-439,007	3,155	0,051	0,027
-437,992	-200,000	0,018	0,181
-436,978	800,000	-0,032	0,088
-435,963	-35,664	-0,108	0,043
-434,949	211,728	0,087	-0,101
-433,934	-200,000	-0,025	0,092
-432,919	477,206	-0,029	-0,048
-431,905	-92,564	0,142	-0,029
-430,890	-95,686	-0,098	0,019
-429,876	404,310	0,046	0,071
-428,861	22,909	0,069	0,042
-427,846	-91,919	-0,083	-0,017
-426,832	66,944	0,075	-0,056
-425,817	-200,000	0,001	-0,104
-424,803	237,291	0,064	0,077
-423,788	388,387	-0,011	0,017
-422,773	-78,919	0,037	-0,009
-421,759	141,728	0,158	0,154
-420,744	-200,000	-0,000	0,058
-419,730	800,000	-0,017	0,053
-418,715	-5,652	-0,086	-0,043
-417,701	-200,000	0,011	0,044
-416,686	562,035	0,016	0,029
-415,671	15,967	-0,120	0,069
-414,657	-200,000	-0,001	0,123
-413,642	-157,395	0,098	0,004
-412,628	-17,023	0,172	0,079
-411,613	-118,260	0,083	0,011
-410,598	-152,830	-0,099	-0,005
-409,584	-85,947	0,043	-0,010
-408,569	46,814	0,104	0,071
-407,555	-169,288	-0,120	0,003
-406,540	-53,086	-0,075	-0,025
-405,525	-123,084	0,081	-0,009
-404,511	38,923	-0,109	0,071
-403,496	-125,443	0,085	0,009
-402,482	800,000	-0,039	-0,092
-401,467	213,530	0,056	-0,065
-400,452	-153,253	-0,082	0,004
-399,438	-130,060	0,066	0,007
-398,423	-92,835	0,097	-0,020
-397,409	499,141	0,037	0,063
-396,394	190,329	0,113	-0,124
-395,379	204,412	-0,122	-0,139
-394,365	62,531	-0,030	0,022
-393,350	86,732	0,040	0,032
-392,336	800,000	0,043	-0,116
-391,321	-122,079	0,047	-0,006
-390,306	800,000	0,038	0,109
-389,292	-200,000	0,018	-0,087
-388,277	-48,192	-0,045	-0,016
-387,263	141,597	-0,024	0,023
-386,248	120,771	0,140	0,128
-385,233	345,121	-0,079	0,114
-384,219	-200,000	-0,001	-0,128
-383,204	523,570	-0,058	-0,101
-382,190	209,212	0,075	-0,086
-381,175	197,623	0,013	-0,015
-380,160	-18,373	0,069	0,031
-379,146	-18,610	0,029	-0,013
-378,131	105,159	0,153	0,132
-377,117	574,939	-0,054	0,098
-376,102	-155,913	-0,199	0,009
-375,088	147,063	-0,070	-0,069
-374,073	-200,000	-0,014	-0,058
-373,058	800,000	0,015	0,039
-372,044	19,103	0,022	-0,013
-371,029	-200,000	0,010	0,037
-370,015	-115,812	0,046	0,006
-369,000	160,206	0,058	-0,060
-367,985	653,295	0,023	-0,043
-366,971	222,275	-0,036	0,043
-365,956	40,573	-0,107	0,070
-364,942	-68,887	0,058	-0,016
-363,927	529,788	0,031	-0,054
-362,912	90,663	0,073	0,060
-361,898	-200,000	0,015	-0,190
-360,883	125,330	0,072	-0,066
-359,869	198,171	-0,064	0,071
-358,854	-111,310	0,036	0,005
-357,839	-114,571	-0,104	0,014
-356,825	-125,212	-0,158	-0,017
-355,810	81,104	0,043	0,034
-354,796	800,000	-0,041	-0,119
-353,781	-200,000	0,010	0,055
-352,766	-200,000	-0,011	-0,057
-351,752	-200,000	-0,006	0,162
-350,737	225,952	-0,080	0,094
-349,723	-200,000	0,001	0,009
-348,708	-200,000	0,014	-0,069
-347,693	-151,212	-0,173	0,009
-346,679	-72,565	-0,108	-0,029
-345,664	35,664	-0,031	-0,020
-344,650	355,763	-0,081	0,119
-343,635	-200,000	-0,027	0,119
-342,620	34,687	0,041	0,026
-341,606	-119,147	-0,120	-0,015
-340,591	-55,250	0,059	-0,019
-339,577	48,407	-0,048	0,033
-338,562	-200,000	-0,001	-0,025
-337,548	198,858	0,063	-0,071
-336,533	-200,000	-0,000	-0,012
-335,518	194,303	-0,077	0,085
-334,504	-200,000	0,003	-0,171
-333,489	800,000	-0,005	0,013
-332,475	355,896	-0,090	-0,131
-331,460	66,696	0,042	0,031
-330,445	-38,755	0,104	-0,040
-329,431	-86,206	-0,041	0,009
-328,416	-54,031	0,012	0,004
-327,402	281,849	-0,009	-0,011
-326,387	800,000	-0,024	0,059
-325,372	15,212	0,137	0,078
-324,358	-200,000	-0,002	-0,123
-323,343	74,499	-0,074	0,057
-322,329	-142,699	0,067	0,005
-321,314	-89,233	0,121	-0,026
-320,299	96,376	0,038	0,032
-319,285	-200,000	0,021	0,105
-318,270	253,101	0,061	-0,076
-317,256	-45,727	-0,125	-0,045
-316,241	-200,000	-0,044	0,217
-315,226	-200,000	0,001	-0,056
-314,212	13,195	0,181	0,102
-313,197	342,161	0,017	0,025
-312,183	584,835	0,056	-0,100
-311,168	139,550	0,010	0,010
-310,153	-200,000	0,006	-0,088
-309,139	595,644	0,072	0,131
-308,124	-200,000	0,005	0,066
-307,110	95,687	0,020	-0,017
-306,095	140,612	-0,033	-0,032
-305,080	92,334	-0,053	0,044
-304,066	-200,000	0,015	0,064
-303,051	-60,723	-0,132	-0,041
-302,037	-132,179	-0,145	0,014
-301,022	-99,044	-0,035	0,006
-300,008	800,000	-0,085	-0,208
-298,993	463,897	0,091	0,149
-297,978	142,583	0,092	0,089
-296,964	1,414	-0,034	0,018
-295,949	-200,000	0,000	0,025
-294,935	62,059	-0,017	-0,012
-293,920	-200,000	0,005	-0,099
-292,905	800,000	0,035	0,108
-291,891	-58,678	-0,144	0,045
-290,876	-24,882	0,018	-0,008
-289,862	800,000	-0,018	-0,046
-288,847	800,000	-0,007	-0,017
-287,832	-200,000	0,021	-0,129
-286,818	307,631	-0,093	-0,126
-285,803	-75,933	0,063	-0,016
-284,789	-200,000	0,058	-0,187
-283,774	-200,000	-0,021	-0,110
-282,759	800,000	0,033	-0,082
-281,745	42,931	-0,060	0,040
-280,730	90,614	-0,020	-0,016
-279,716	-200,000	-0,006	0,045
-278,701	-200,000	-0,015	0,077
-277,686	749,469	-0,065	0,128
-276,672	358,963	-0,088	0,128
-275,657	181,725	-0,023	-0,025
-274,643	-200,000	-0,028	-0,115
-273,628	224,145	0,032	-0,038
-272,613	15,419	-0,067	-0,038
-271,599	578,027	0,052	0,094
-270,584	-200,000	-0,008	-0,045
-269,570	138,958	-0,091	0,087
-268,555	-84,942	0,030	-0,007
-267,540	-40,544	-0,037	-0,014
-266,526	-200,000	-0,013	-0,114
-265,511	800,000	0,042	-0,104
-264,497	-82,596	-0,069	0,016
-263,482	-44,780	0,102	0,037
-262,467	125,862	0,018	0,017
-261,453	-77,596	-0,082	-0,021
-260,438	-200,000	-0,001	-0,083
-259,424	800,000	0,008	-0,021
-258,409	-57,569	0,058	-0,019
-257,395	2,563	-0,092	0,048
-256,380	-200,000	-0,000	-0,042
-255,365	83,367	0,039	-0,031
-254,351	-200,000	0,008	-0,090
-253,336	1,089	-0,120	-0,062
-252,322	56,161	0,090	-0,063
-251,307	519,867	0,020	0,034
-250,292	431,442	0,047	-0,075
-249,278	-77,384	0,127	-0,032
-248,263	800,000	0,027	-0,057
-247,249	-112,634	0,154	0,022
-246,234	-70,610	-0,173	0,047
-245,219	-200,000	-0,001	0,075
-244,205	94,084	-0,108	-0,089
-243,190	143,506	0,081	-0,079
-242,176	-200,000	0,005	0,046
-241,161	-50,220	0,161	-0,055
-240,146	800,000	-0,011	0,026
-239,132	133,627	-0,040	0,038
-238,117	549,416	-0,012	0,021
-237,103	533,077	0,015	-0,026
-236,088	-47,726	-0,098	0,034
-235,073	296,586	-0,020	-0,027
-234,059	-56,635	0,123	-0,039
-233,044	800,000	-0,042	0,107
-232,030	-200,000	0,025	0,093
-231,015	800,000	0,054	0,122
-230,000	-94,096	-0,097	-0,019
-228,986	-106,726	-0,121	-0,019
-227,971	113,396	0,116	-0,103
-226,957	106,336	-0,033	0,028
-225,942	117,265	0,151	0,135
-224,927	40,457	0,074	-0,049
-223,913	800,000	0,085	0,198
-222,898	91,090	0,074	0,061
-221,884	-200,000	0,010	-0,047
-220,869	139,003	0,077	0,074
-219,855	-71,824	0,074	0,020
-218,840	800,000	0,058	0,176
-217,825	186,854	0,100	0,108
-216,811	-79,178	0,102	-0,025
-215,796	-7,483	-0,148	-0,073
-214,782	800,000	0,056	0,127
-213,767	183,046	-0,036	0,039
-212,752	800,000	0,020	0,058
-211,738	-200,000	-0,014	0,111
-210,723	800,000	-0,020	0,060
-209,709	-81,152	0,145	0,034
-208,694	-200,000	-0,008	-0,110
-207,679	-94,330	-0,100	0,020
-206,665	-56,505	-0,033	-0,010
-205,650	-169,334	0,090	-0,002
-204,636	-11,034	-0,006	0,003
-203,621	-33,546	-0,047	0,019
-202,606	-8,316	0,055	0,027
-201,592	-6,189	-0,120	0,059
-200,577	118,276	0,077	-0,069
-199,563	-200,000	-0,015	-0,060
-198,548	34,990	-0,052	0,033
-197,533	-200,000	0,015	0,068
-196,519	800,000	0,023	0,068
-195,504	-39,039	-0,095	0,036
-194,490	20,808	0,093	0,054
-193,475	-200,000	0,006	-0,262
-192,460	647,402	-0,030	-0,055
-191,446	-200,000	0,035	-0,127
-190,431	136,820	-0,085	0,081
-189,417	680,754	0,031	0,060
-188,402	69,166	0,030	-0,022
-187,387	-200,000	-0,004	0,062
-186,373	-200,000	-0,009	-0,072
-185,358	84,227	0,060	0,047
-184,344	180,585	-0,050	-0,053
-183,329	120,525	-0,131	0,118
-182,315	-200,000	0,021	0,167
-181,300	-200,000	0,010	-0,084
-180,285	7,507	0,059	-0,032
-179,271	-66,162	-0,137	-0,039
-178,256	22,067	-0,163	-0,096
-177,242	-132,958	0,081	0,007
-176,227	-200,000	0,012	0,052
-175,212	69,751	0,051	0,038
-174,198	105,628	0,097	0,083
-173,183	-27,747	-0,135	-0,056
-172,169	-20,562	0,152	0,068
-171,154	15,739	0,080	-0,045
-170,139	-200,000	-0,010	0,058
-169,125	800,000	0,039	0,101
-168,110	-118,004	0,132	-0,017
-167,096	-32,572	-0,125	-0,050
-166,081	-200,000	0,004	0,042
-165,066	76,938	0,028	0,022
-164,052	-200,000	-0,012	-0,052
-163,037	-200,000	0,004	-0,029
-162,023	541,954	0,032	-0,056
-161,008	40,961	0,046	0,030
-159,993	9,556	0,087	0,048
-158,979	79,609	-0,090	0,070
-157,964	-200,000	-0,014	-0,066
-156,950	170,743	0,008	-0,009
-155,935	134,604	0,061	-0,057
-154,920	-111,593	0,046	0,007
-153,906	-89,027	0,134	-0,028
-152,891	-156,829	-0,108	-0,005
-151,877	451,259	-0,050	-0,081
-150,862	-84,246	-0,126	-0,029
-149,847	128,721	-0,053	-0,049
-148,833	120,777	-0,057	0,051
-147,818	2,251	0,103	-0,054
-146,804	-68,300	0,089	0,025
-145,789	-47,770	-0,140	0,049
-144,775	-200,000	-0,019	0,106
-143,760	47,555	-0,118	0,079
-142,745	-89,564	-0,090	0,019
-141,731	-200,000	-0,001	0,077
-140,716	-115,250	0,085	0,012
-139,702	85,243	0,047	-0,037
-138,687	800,000	-0,061	0,152
-137,672	8,707	-0,108	0,059
-136,658	-155,394	-0,188	0,009
-135,643	333,575	-0,095	-0,133
-134,629	24,209	0,037	0,022
-133,614	444,134	-0,080	-0,128
-132,599	3,010	-0,132	0,069
-131,585	-200,000	-0,028	0,125
-130,570	-93,696	0,017	-0,003
-129,556	-99,382	-0,075	0,014
-128,541	1,987	-0,079	-0,041
-127,526	-99,027	-0,086	0,016
-126,512	430,565	-0,030	-0,047
-125,497	202,203	0,041	-0,046
-124,483	-12,824	0,038	-0,018
-123,468	-97,401	0,142	0,026
-122,453	-200,000	0,020	0,102
-121,439	800,000	-0,021	0,057
-120,424	-200,000	0,022	0,133
-119,410	-200,000	-0,018	0,102
