DTS Sentinel unit serial number:	SN410029Multiplexer serial number:	ORYXHardware model number:	OX2-SRSoftware version number:	ORYX F/W v4,00 Oryx Data Collector v3.7.2.0data status	okinstallation	B6 Nyhavnadifferential loss correction	single-endedforward channel	channel 2reverse channel	N/Adate	2023/12/09time	09:10:08forward acquisition time	300,00reverse acquisition time	0,00gamma	499,1914k internal	0,3138k external	0,3138temperature offset calibration	1,0000default loss term (dB/km)	0,3820temperature slope calibration	1,0000multiplexer offset coefficient	1,0000multiplexer slope coefficient	1,0000fibre end	0,00T internal ref (°C)	18,44T ext. ref 1 (°C)	1,99T ext. ref 2 (°C)	2,00length (m)	temperature (°C)	Stokes	anti-Stokes-744,400	-106,034	0,115	-0,019
-743,385	-82,336	-0,192	0,046
-742,371	-139,709	0,190	-0,015
-741,356	-137,734	-0,264	0,022
-740,342	-90,243	0,081	0,017
-739,327	-51,559	-0,257	0,088
-738,312	-75,028	0,190	-0,050
-737,298	-198,803	-0,279	-0,001
-736,283	-61,645	0,100	0,031
-735,269	70,007	-0,298	0,228
-734,254	800,000	0,034	0,097
-733,239	-80,725	-0,620	-0,152
-732,225	243,110	0,107	0,134
-731,210	657,609	0,056	0,107
-730,196	179,845	0,106	0,115
-729,181	316,538	-0,064	-0,089
-728,167	-17,873	-0,155	-0,072
-727,152	116,806	-0,034	0,031
-726,137	-200,000	0,023	-0,108
-725,123	-100,678	-0,082	0,015
-724,108	139,533	-0,035	-0,034
-723,094	132,616	-0,119	-0,114
-722,079	-38,335	0,036	-0,014
-721,064	800,000	0,058	0,145
-720,050	800,000	0,027	-0,070
-719,035	15,809	-0,128	0,075
-718,021	769,872	-0,077	-0,155
-717,006	28,290	0,082	-0,051
-715,991	-13,085	-0,058	-0,028
-714,977	138,253	-0,034	0,033
-713,962	-76,097	0,085	0,022
-712,948	-200,000	0,015	0,050
-711,933	186,975	-0,111	0,123
-710,918	-200,000	0,003	0,073
-709,904	800,000	-0,030	-0,069
-708,889	-53,938	-0,112	0,037
-707,875	-1,556	-0,098	-0,051
-706,860	800,000	-0,063	-0,140
-705,845	103,666	-0,082	-0,071
-704,831	-29,153	-0,131	0,055
-703,816	-28,722	0,124	0,053
-702,802	-85,752	-0,080	0,018
-701,787	-200,000	0,027	0,111
-700,772	800,000	-0,015	0,035
-699,758	800,000	0,073	0,192
-698,743	800,000	-0,043	0,125
-697,729	306,077	0,029	-0,039
-696,714	-10,668	0,073	0,035
-695,699	23,203	-0,039	0,024
-694,685	476,443	-0,017	-0,029
-693,670	800,000	-0,035	0,082
-692,656	800,000	0,018	0,040
-691,641	287,693	-0,009	0,012
-690,627	800,000	0,016	-0,050
-689,612	288,263	-0,087	0,117
-688,597	-200,000	0,011	0,097
-687,583	-43,573	-0,120	0,045
-686,568	61,572	-0,113	-0,083
-685,554	-200,000	-0,024	0,080
-684,539	169,357	0,050	-0,053
-683,524	-73,028	-0,138	-0,037
-682,510	501,552	0,082	0,141
-681,495	227,501	-0,124	-0,149
-680,481	4,392	-0,108	-0,059
-679,466	34,581	-0,074	-0,048
-678,451	68,629	-0,028	-0,021
-677,437	88,218	-0,111	0,091
-676,422	6,573	-0,144	-0,079
-675,408	-200,000	-0,023	0,231
-674,393	17,920	-0,073	-0,043
-673,378	352,424	-0,078	-0,114
-672,364	-200,000	0,011	-0,207
-671,349	800,000	-0,035	-0,085
-670,335	800,000	-0,057	0,134
-669,320	-200,000	-0,016	0,082
-668,305	800,000	-0,041	0,109
-667,291	478,901	-0,028	0,047
-666,276	739,101	-0,051	-0,102
-665,262	-5,332	-0,155	-0,079
-664,247	200,335	-0,073	-0,083
-663,232	143,770	-0,029	-0,028
-662,218	520,245	0,068	0,119
-661,203	-200,000	-0,028	0,105
-660,189	425,483	0,033	0,052
-659,174	386,696	-0,087	-0,134
-658,159	-200,000	-0,018	-0,097
-657,145	-200,000	-0,037	-0,140
-656,130	95,035	-0,127	-0,107
-655,116	105,748	0,076	0,066
-654,101	-34,093	-0,125	0,050
-653,086	4,386	-0,140	-0,076
-652,072	-50,503	-0,119	-0,041
-651,057	52,345	-0,089	-0,063
-650,043	-200,000	-0,017	0,102
-649,028	-74,359	-0,115	-0,030
-648,014	-84,279	0,143	-0,033
-646,999	67,110	0,069	0,052
-645,984	94,448	-0,136	-0,114
-644,970	-200,000	0,004	0,161
-643,955	-76,938	-0,115	-0,029
-642,941	-200,000	-0,014	-0,097
-641,926	335,508	-0,044	0,064
-640,911	36,733	-0,132	-0,086
-639,897	286,186	-0,076	0,101
-638,882	460,670	0,043	0,071
-637,868	800,000	0,028	0,064
-636,853	-72,480	-0,073	-0,020
-635,838	-200,000	0,021	-0,146
-634,824	-130,651	-0,098	0,010
-633,809	213,620	-0,068	0,080
-632,795	-200,000	-0,024	0,132
-631,780	7,720	0,081	0,045
-630,765	125,463	-0,039	0,037
-629,751	-135,065	0,018	-0,002
-628,736	-200,000	0,009	-0,079
-627,722	-188,880	-0,053	-0,000
-626,707	-200,000	-0,005	-0,109
-625,692	11,225	0,056	0,032
-624,678	-61,476	0,052	0,016
-623,663	800,000	-0,032	-0,084
-622,649	-200,000	0,011	-0,116
-621,634	405,290	0,033	-0,052
-620,619	-135,748	0,078	-0,007
-619,605	-200,000	-0,017	-0,067
-618,590	204,100	0,099	0,113
-617,576	47,003	0,022	0,015
-616,561	-104,903	-0,129	0,022
-615,546	5,483	0,104	-0,056
-614,532	648,269	-0,078	-0,148
-613,517	2,624	-0,073	-0,039
-612,503	658,216	0,028	-0,054
-611,488	319,731	-0,043	-0,060
-610,474	-73,834	0,043	-0,011
-609,459	-200,000	0,022	0,198
-608,444	-200,000	-0,002	0,035
-607,430	306,419	-0,026	-0,036
-606,415	800,000	-0,069	-0,163
-605,401	16,429	0,070	-0,041
-604,386	-21,564	0,061	-0,028
-603,371	-26,041	-0,060	0,026
-602,357	-77,485	-0,029	0,007
-601,342	800,000	-0,044	-0,097
-600,328	800,000	0,030	-0,076
-599,313	-66,383	0,089	0,026
-598,298	-200,000	0,001	-0,044
-597,284	177,547	-0,051	-0,055
-596,269	800,000	0,037	0,088
-595,255	-200,000	-0,010	-0,092
-594,240	-200,000	0,014	-0,052
-593,225	800,000	0,040	-0,113
-592,211	-125,388	-0,158	-0,018
-591,196	403,537	-0,027	-0,043
-590,182	80,066	-0,022	0,017
-589,167	-200,000	-0,015	-0,111
-588,152	-200,000	0,028	-0,098
-587,138	104,287	-0,095	-0,082
-586,123	800,000	-0,075	-0,163
-585,109	800,000	0,023	-0,048
-584,094	-200,000	0,006	0,072
-583,079	800,000	0,054	0,122
-582,065	-76,679	0,123	-0,032
-581,050	-94,779	0,176	0,035
-580,036	-200,000	-0,015	0,070
-579,021	-75,843	-0,080	0,021
-578,006	-42,640	-0,142	0,053
-576,992	800,000	-0,055	0,176
-575,977	-50,060	0,038	0,013
-574,963	-122,462	0,034	0,004
-573,948	-200,000	0,002	0,034
-572,934	-200,000	0,041	-0,162
-571,919	800,000	-0,100	-0,221
-570,904	-14,608	-0,125	-0,059
-569,890	613,860	-0,039	0,071
-568,875	-75,694	0,049	0,013
-567,861	23,303	0,072	-0,044
-566,846	788,900	-0,053	-0,108
-565,831	119,559	0,113	-0,103
-564,817	-132,592	-0,130	0,012
-563,802	800,000	0,045	-0,117
-562,788	-200,000	-0,012	-0,109
-561,773	383,910	0,061	-0,093
-560,758	-200,000	0,033	0,128
-559,744	-82,586	-0,083	0,020
-558,729	235,418	-0,084	0,102
-557,715	544,303	-0,052	-0,091
-556,700	-200,000	-0,003	-0,126
-555,685	-137,255	-0,086	0,007
-554,671	-96,964	-0,147	0,028
-553,656	132,360	-0,046	-0,044
-552,642	-33,437	-0,089	-0,036
-551,627	-87,802	0,141	-0,031
-550,612	349,165	-0,083	-0,120
-549,598	184,498	0,058	0,064
-548,583	-38,164	-0,046	0,018
-547,569	-200,000	-0,009	-0,101
-546,554	-200,000	-0,003	-0,016
-545,539	-13,025	0,052	0,025
-544,525	31,043	0,097	0,061
-543,510	-200,000	-0,010	-0,173
-542,496	800,000	0,013	0,030
-541,481	-126,763	-0,112	-0,012
-540,466	800,000	-0,013	-0,030
-539,452	-74,160	0,045	0,012
-538,437	-200,000	-0,001	-0,031
-537,423	800,000	0,022	-0,064
-536,408	-92,082	0,020	-0,004
-535,393	79,180	-0,037	-0,029
-534,379	-200,000	-0,036	-0,138
-533,364	-129,586	0,233	0,023
-532,350	53,511	-0,120	-0,085
-531,335	-165,057	-0,037	0,001
-530,321	-200,000	-0,004	0,025
-529,306	-79,433	0,046	-0,011
-528,291	45,092	-0,107	-0,073
-527,277	24,781	0,065	-0,039
-526,262	-70,675	0,105	-0,029
-525,248	36,264	0,123	0,080
-524,233	387,572	0,072	0,110
-523,218	-78,679	0,084	0,021
-522,204	-200,000	-0,028	-0,120
-521,189	45,274	0,077	-0,052
-520,175	-200,000	-0,026	-0,124
-519,160	800,000	-0,003	-0,006
-518,145	734,094	0,018	-0,036
-517,131	258,043	0,075	0,096
-516,116	761,467	0,021	0,043
-515,102	-61,399	0,080	0,025
-514,087	800,000	0,010	-0,029
-513,072	42,085	-0,029	0,019
-512,058	800,000	0,064	0,138
-511,043	761,593	0,014	0,028
-510,029	114,377	0,096	0,086
-509,014	220,508	-0,139	0,165
-507,999	242,827	-0,098	0,121
-506,985	-49,885	-0,073	0,025
-505,970	-79,675	0,056	0,014
-504,956	-122,014	-0,095	-0,011
-503,941	-71,249	-0,031	-0,009
-502,926	205,147	0,074	0,085
-501,912	-200,000	-0,033	0,118
-500,897	-46,965	0,102	0,036
-499,883	-200,000	-0,052	-0,221
-498,868	-43,512	-0,083	0,031
-497,853	800,000	-0,021	-0,059
-496,839	145,784	0,039	0,038
-495,824	800,000	0,004	0,010
-494,810	100,723	-0,013	0,011
-493,795	-200,000	0,017	0,074
-492,781	-200,000	-0,033	-0,153
-491,766	-163,038	0,094	-0,003
-490,751	-149,345	0,111	-0,006
-489,737	476,245	0,033	-0,055
-488,722	148,321	0,085	0,085
-487,708	-189,744	0,102	0,001
-486,693	-119,745	-0,070	-0,009
-485,678	76,716	0,021	0,017
-484,664	303,799	-0,032	-0,044
-483,649	137,454	-0,059	-0,057
-482,635	573,726	0,043	-0,078
-481,620	-200,000	-0,004	-0,030
-480,605	445,277	0,049	0,078
-479,591	139,764	0,059	0,057
-478,576	188,467	0,044	0,049
-477,562	-89,688	0,079	-0,017
-476,547	-84,630	-0,089	0,020
-475,532	11,651	-0,076	-0,043
-474,518	-9,263	-0,105	-0,051
-473,503	-25,068	-0,060	-0,026
-472,489	-200,000	-0,005	0,029
-471,474	-100,654	-0,052	0,009
-470,459	108,222	0,054	0,047
-469,445	730,002	0,053	-0,105
-468,430	-23,579	-0,067	0,029
-467,416	235,870	0,106	0,129
-466,401	-45,608	0,109	0,040
-465,386	-108,469	-0,119	0,019
-464,372	-200,000	0,011	0,067
-463,357	-68,910	0,079	-0,022
-462,343	-10,687	0,057	0,027
-461,328	771,647	0,040	-0,079
-460,313	-200,000	0,007	0,035
-459,299	-63,873	0,048	0,014
-458,284	-200,000	0,008	0,173
-457,270	-200,000	0,019	-0,075
-456,255	-131,077	-0,162	-0,016
-455,241	76,037	0,015	-0,012
-454,226	-149,231	0,103	0,006
-453,211	-20,271	0,201	0,090
-452,197	-54,471	0,062	0,021
-451,182	-50,832	-0,031	-0,011
-450,168	102,459	0,033	-0,029
-449,153	800,000	-0,012	0,034
-448,138	800,000	-0,058	0,148
-447,124	-101,382	-0,144	-0,026
-446,109	77,598	0,097	0,076
-445,095	-200,000	-0,008	0,097
-444,080	-134,662	0,094	-0,008
-443,065	-5,865	-0,013	-0,006
-442,051	0,155	-0,126	-0,066
-441,036	-200,000	0,011	-0,037
-440,022	-200,000	-0,018	-0,088
-439,007	800,000	-0,023	0,049
-437,992	22,984	0,068	0,040
-436,978	-44,552	0,220	-0,080
-435,963	-120,048	-0,079	-0,010
-434,949	800,000	-0,032	0,099
-433,934	71,270	-0,156	0,118
-432,919	-88,858	0,043	-0,009
-431,905	800,000	-0,008	0,022
-430,890	310,744	0,067	0,092
-429,876	-90,393	0,072	0,015
-428,861	-200,000	-0,007	-0,050
-427,846	87,805	-0,057	-0,046
-426,832	-200,000	0,028	-0,150
-425,817	-34,118	-0,105	0,042
-424,803	-200,000	-0,006	0,153
-423,788	800,000	0,033	0,098
-422,773	228,793	0,034	-0,041
-421,759	115,392	0,133	-0,119
-420,744	131,819	-0,068	0,064
-419,730	99,001	-0,124	-0,105
-418,715	369,046	-0,024	0,036
-417,701	-200,000	0,005	0,027
-416,686	800,000	-0,044	0,102
-415,671	-93,148	0,053	0,011
-414,657	408,110	0,040	0,062
-413,642	17,818	0,100	-0,058
-412,628	-28,988	-0,065	0,027
-411,613	-87,252	-0,074	-0,016
-410,598	-200,000	0,012	-0,129
-409,584	-139,035	-0,099	-0,008
-408,569	95,377	0,119	0,099
-407,555	-130,264	0,101	-0,010
-406,540	-200,000	-0,004	0,026
-405,525	754,458	-0,051	-0,102
-404,511	-124,365	0,132	-0,015
-403,496	127,241	0,107	-0,099
-402,482	366,496	-0,042	-0,063
-401,467	-200,000	0,028	-0,102
-400,452	-200,000	-0,018	0,147
-399,438	63,222	0,051	0,037
-398,423	-200,000	0,015	0,097
-397,409	622,523	0,033	-0,061
-396,394	-200,000	0,006	0,024
-395,379	-200,000	-0,003	-0,015
-394,365	-200,000	0,005	0,060
-393,350	-136,724	-0,147	-0,012
-392,336	221,397	0,046	-0,054
-391,321	387,462	0,128	0,194
-390,306	111,989	-0,128	0,113
-389,292	-48,167	-0,033	-0,011
-388,277	-200,000	0,019	0,086
-387,263	-135,055	0,108	-0,009
-386,248	30,157	-0,145	0,090
-385,233	-200,000	0,014	0,130
-384,219	-10,210	-0,086	-0,042
-383,204	800,000	0,043	-0,103
-382,190	-182,417	0,055	0,001
-381,175	-141,053	0,162	-0,012
-380,160	-200,000	-0,032	-0,111
-379,146	38,329	0,104	0,067
-378,131	-149,664	0,127	0,007
-377,117	322,179	0,058	0,081
-376,102	65,364	0,067	0,049
-375,088	338,788	0,025	-0,036
-374,073	800,000	-0,042	-0,090
-373,058	-128,298	-0,036	0,004
-372,044	152,448	0,079	0,079
-371,029	110,399	-0,009	0,008
-370,015	23,762	-0,074	-0,045
-369,000	-200,000	0,015	-0,177
-367,985	-7,842	-0,124	-0,061
-366,971	240,104	0,027	-0,033
-365,956	-9,146	-0,050	0,025
-364,942	76,203	0,068	-0,052
-363,927	-169,540	0,177	0,005
-362,912	232,212	0,117	-0,140
-361,898	-200,000	0,041	-0,141
-360,883	-200,000	-0,017	-0,079
-359,869	721,333	0,073	-0,143
-358,854	-200,000	-0,005	-0,111
-357,839	-113,859	0,109	-0,015
-356,825	-80,161	-0,067	-0,016
-355,810	162,433	0,075	-0,077
-354,796	-124,512	0,010	0,001
-353,781	225,847	-0,050	-0,059
-352,766	243,799	-0,007	0,008
-351,752	-200,000	0,026	-0,088
-350,737	800,000	0,012	0,026
-349,723	-200,000	0,020	0,084
-348,708	750,846	0,054	0,106
-347,693	217,058	0,039	-0,046
-346,679	90,457	-0,024	-0,020
-345,664	800,000	0,007	0,018
-344,650	-200,000	0,000	-0,027
-343,635	700,182	-0,060	0,115
-342,620	196,569	0,042	0,047
-341,606	-84,633	0,069	0,016
-340,591	-5,570	0,081	-0,040
-339,577	212,181	0,089	0,102
-338,562	259,378	-0,059	0,074
-337,548	705,709	0,044	0,086
-336,533	-131,458	0,090	-0,009
-335,518	412,261	-0,065	0,100
-334,504	-200,000	0,004	0,095
-333,489	99,284	0,043	0,037
-332,475	433,470	-0,011	-0,017
-331,460	-184,967	-0,185	-0,002
-330,445	800,000	0,054	0,129
-329,431	4,786	0,152	0,081
-328,416	382,957	0,039	0,058
-327,402	800,000	0,006	0,017
-326,387	242,788	0,104	0,128
-325,372	46,894	0,030	-0,020
-324,358	-143,768	-0,111	0,008
-323,343	-129,236	0,052	0,005
-322,329	758,621	-0,034	0,067
-321,314	-185,283	0,066	0,001
-320,299	-73,052	-0,152	0,040
-319,285	65,409	-0,115	0,085
-318,270	95,100	-0,116	-0,097
-317,256	-200,000	0,008	0,082
-316,241	800,000	0,020	0,050
-315,226	94,064	0,050	0,041
-314,212	-64,604	0,138	-0,040
-313,197	-200,000	0,000	-0,041
-312,183	-200,000	0,003	0,107
-311,168	384,536	-0,064	-0,097
-310,153	90,807	-0,072	-0,059
-309,139	-101,007	-0,051	-0,009
-308,124	103,602	0,035	-0,030
-307,110	31,717	0,038	0,024
-306,095	83,967	-0,049	0,039
-305,080	-9,133	-0,043	0,021
-304,066	-30,459	-0,068	0,028
-303,051	-200,000	0,004	0,061
-302,037	112,002	-0,004	-0,004
-301,022	-200,000	0,015	0,088
-300,008	-152,430	0,094	-0,005
-298,993	-96,919	-0,073	0,014
-297,978	-200,000	-0,013	-0,126
-296,964	-200,000	0,028	-0,103
-295,949	-200,000	-0,009	-0,038
-294,935	190,559	-0,020	0,022
-293,920	-200,000	0,004	-0,092
-292,905	-19,316	0,110	0,049
-291,891	37,579	0,144	0,093
-290,876	392,619	-0,077	-0,117
-289,862	-50,007	0,097	-0,033
-288,847	122,656	-0,098	-0,089
-287,832	374,534	-0,063	-0,093
-286,818	-200,000	-0,002	-0,033
-285,803	-85,517	0,029	0,007
-284,789	663,710	-0,070	0,132
-283,774	114,784	0,118	0,105
-282,759	-200,000	0,022	-0,092
-281,745	16,453	-0,070	-0,040
-280,730	-200,000	0,040	0,137
-279,716	-5,051	0,048	0,024
-278,701	-34,580	-0,077	0,031
-277,686	-86,330	0,143	0,032
-276,672	-200,000	-0,008	0,111
-275,657	-200,000	-0,013	0,082
-274,643	-200,000	0,017	-0,091
-273,628	75,075	-0,027	0,021
-272,613	375,437	-0,046	0,068
-271,599	-85,711	0,089	0,020
-270,584	246,532	0,031	0,038
-269,570	-200,000	-0,002	-0,043
-268,555	548,235	-0,017	-0,030
-267,540	800,000	-0,037	-0,082
-266,526	-125,582	-0,152	0,017
-265,511	109,732	-0,146	0,127
-264,497	-52,940	-0,052	0,017
-263,482	-43,378	0,224	-0,082
-262,467	-200,000	-0,003	-0,033
-261,453	-7,679	-0,048	0,024
-260,438	95,087	-0,045	0,037
-259,424	-200,000	-0,008	0,115
-258,409	800,000	-0,024	-0,062
-257,395	-200,000	-0,008	-0,121
-256,380	-200,000	-0,003	0,055
-255,365	66,705	-0,136	0,101
-254,351	-102,830	0,068	0,012
-253,336	149,720	-0,039	0,038
-252,322	800,000	0,031	0,095
-251,307	35,522	-0,030	-0,019
-250,292	-200,000	0,022	-0,109
-249,278	93,094	0,125	0,103
-248,263	-200,000	-0,005	0,073
-247,249	536,973	0,016	0,027
-246,234	62,206	0,026	-0,019
-245,219	-40,100	-0,181	0,068
-244,205	800,000	0,022	-0,047
-243,190	99,082	0,108	0,091
-242,176	800,000	0,066	0,178
-241,161	-118,063	0,066	0,008
-240,146	-40,132	0,010	0,004
-239,132	37,033	0,056	-0,036
-238,117	8,484	-0,067	0,037
-237,103	52,874	-0,061	-0,043
-236,088	800,000	-0,010	0,022
-235,073	-147,454	-0,096	0,006
-234,059	-33,812	0,079	0,031
-233,044	-71,213	-0,057	0,015
-232,030	-200,000	-0,020	-0,088
-231,015	800,000	-0,045	-0,096
-230,000	800,000	0,026	0,068
-228,986	-143,446	-0,079	-0,005
-227,971	110,287	0,061	-0,054
-226,957	-82,967	0,011	0,003
-225,942	551,626	0,076	0,134
-224,927	-200,000	0,016	0,165
-223,913	-200,000	0,007	-0,109
-222,898	-143,621	-0,111	-0,008
-221,884	18,675	-0,107	0,062
-220,869	-7,851	0,059	0,029
-219,855	-129,205	0,167	0,017
-218,840	-18,103	-0,169	-0,077
-217,825	42,580	-0,093	0,062
-216,811	681,067	0,045	-0,085
-215,796	800,000	-0,023	-0,062
-214,782	82,964	-0,019	-0,015
-213,767	-112,987	-0,070	0,010
-212,752	211,942	-0,073	0,083
-211,738	403,945	0,101	0,155
-210,723	-200,000	-0,029	0,160
-209,709	425,618	-0,055	-0,086
-208,694	-161,165	-0,287	-0,011
-207,679	-84,514	-0,095	-0,022
-206,665	-200,000	0,008	0,115
-205,650	-200,000	-0,008	-0,048
-204,636	-90,031	-0,076	-0,016
-203,621	-140,436	0,025	-0,002
-202,606	800,000	-0,016	-0,049
-201,592	-63,271	-0,077	-0,023
-200,577	-79,406	-0,082	-0,020
-199,563	-200,000	-0,041	0,150
-198,548	-171,671	-0,157	-0,004
-197,533	-143,805	0,083	0,006
-196,519	800,000	-0,033	0,069
-195,504	162,273	-0,051	-0,052
-194,490	7,323	-0,232	-0,126
-193,475	-200,000	0,007	-0,050
-192,460	267,383	0,054	0,068
-191,446	214,237	-0,069	0,079
-190,431	124,664	0,104	-0,095
-189,417	-65,123	-0,068	-0,020
-188,402	800,000	-0,010	-0,027
-187,387	-116,718	-0,094	-0,012
-186,373	-200,000	0,034	-0,136
-185,358	-200,000	0,026	-0,087
-184,344	800,000	-0,061	0,166
-183,329	205,127	0,102	0,115
-182,315	-128,178	0,022	0,002
-181,300	351,976	-0,055	-0,079
-180,285	-17,412	0,045	0,020
-179,271	309,647	-0,066	-0,090
-178,256	516,468	0,043	-0,073
-177,242	-64,406	0,052	-0,015
-176,227	-200,000	-0,027	0,165
-175,212	-76,281	0,090	0,023
-174,198	156,155	-0,101	-0,101
-173,183	800,000	0,043	-0,128
-172,169	-200,000	-0,001	-0,043
-171,154	514,180	0,058	-0,099
-170,139	133,666	-0,132	0,124
-169,125	94,447	0,041	0,034
-168,110	800,000	0,064	0,197
-167,096	128,527	-0,084	0,077
-166,081	800,000	0,052	-0,115
-165,066	246,697	-0,034	-0,041
-164,052	800,000	-0,047	-0,122
-163,037	-200,000	0,016	-0,091
-162,023	124,032	-0,046	0,042
-161,008	-170,892	0,019	-0,000
-159,993	616,262	0,078	-0,143
-158,979	-21,252	-0,031	0,014
-157,964	24,421	-0,047	-0,028
-156,950	800,000	-0,015	-0,042
-155,935	535,893	0,052	0,089
-154,920	82,132	0,099	0,078
-153,906	196,194	-0,025	0,028
-152,891	-30,344	-0,017	0,007
-151,877	-200,000	-0,001	0,054
-150,862	139,211	-0,043	-0,041
-149,847	-200,000	-0,013	0,049
-148,833	-33,269	-0,150	0,060
-147,818	143,872	0,088	0,085
-146,804	-101,640	0,048	0,008
-145,789	-166,250	-0,068	-0,002
-144,775	2,112	-0,146	0,076
-143,760	800,000	-0,019	0,051
-142,745	172,344	0,048	0,050
-141,731	-95,172	0,112	0,022
-140,716	-200,000	0,035	0,129
-139,702	800,000	0,037	0,110
-138,687	-130,270	0,038	-0,004
-137,672	-200,000	-0,040	-0,166
-136,658	-34,736	-0,138	-0,054
-135,643	-132,262	-0,124	-0,011
-134,629	187,633	0,086	-0,093
-133,614	-62,832	0,171	-0,051
-132,599	45,518	-0,044	0,029
-131,585	10,928	0,125	0,069
-130,570	-91,339	-0,109	-0,022
-129,556	800,000	-0,032	0,100
-128,541	-200,000	-0,004	0,022
-127,526	525,912	-0,075	-0,129
-126,512	-81,628	0,162	0,038
-125,497	464,491	-0,073	0,119
-124,483	362,066	-0,036	-0,053
-123,468	114,725	-0,086	-0,076
-122,453	158,377	-0,015	-0,015
-121,439	41,917	-0,073	-0,048
-120,424	800,000	0,007	0,021
-119,410	-0,792	0,022	-0,011
