DTS Sentinel unit serial number:	SN410029Multiplexer serial number:	ORYXHardware model number:	OX2-SRSoftware version number:	ORYX F/W v4,00 Oryx Data Collector v3.7.2.0data status	okinstallation	B6 Nyhavnadifferential loss correction	single-endedforward channel	channel 2reverse channel	N/Adate	2023/12/10time	09:35:08forward acquisition time	300,00reverse acquisition time	0,00gamma	499,1914k internal	0,3123k external	0,3123temperature offset calibration	1,0000default loss term (dB/km)	0,3820temperature slope calibration	1,0000multiplexer offset coefficient	1,0000multiplexer slope coefficient	1,0000fibre end	0,00T internal ref (°C)	22,55T ext. ref 1 (°C)	6,32T ext. ref 2 (°C)	6,32length (m)	temperature (°C)	Stokes	anti-Stokes-744,400	574,473	0,045	-0,082
-743,385	-105,097	-0,145	0,024
-742,371	-156,275	-0,067	-0,003
-741,356	-18,003	-0,185	0,086
-740,342	287,215	0,039	-0,053
-739,327	-4,608	-0,285	0,146
-738,312	180,335	-0,062	-0,067
-737,298	-39,870	-0,319	0,124
-736,283	800,000	-0,019	-0,051
-735,269	42,971	-0,170	0,116
-734,254	463,222	0,051	-0,084
-733,239	-25,384	-0,420	-0,184
-732,225	0,488	0,103	-0,054
-731,210	-200,000	0,004	0,091
-730,196	219,372	0,089	0,106
-729,181	-200,000	-0,005	-0,018
-728,167	-142,477	-0,121	0,009
-727,152	-98,644	-0,183	0,035
-726,137	-200,000	0,017	0,094
-725,123	-31,871	-0,042	0,017
-724,108	800,000	-0,027	-0,064
-723,094	-200,000	-0,022	-0,163
-722,079	-95,469	-0,011	0,002
-721,064	-151,446	0,055	0,003
-720,050	-74,001	-0,081	0,022
-719,035	318,194	0,041	-0,058
-718,021	254,904	-0,008	0,010
-717,006	204,850	-0,022	-0,025
-715,991	554,398	0,072	-0,130
-714,977	60,109	-0,114	-0,084
-713,962	800,000	0,012	-0,032
-712,948	-0,857	0,017	-0,009
-711,933	800,000	-0,055	0,115
-710,918	266,092	-0,100	0,131
-709,904	-200,000	-0,036	-0,126
-708,889	800,000	-0,017	-0,055
-707,875	109,898	0,020	-0,018
-706,860	140,129	-0,008	-0,008
-705,845	20,731	-0,048	-0,029
-704,831	2,732	0,079	-0,043
-703,816	42,157	0,092	-0,062
-702,802	-108,974	-0,115	0,018
-701,787	-200,000	-0,007	-0,044
-700,772	-200,000	-0,011	0,118
-699,758	103,557	-0,069	-0,060
-698,743	531,754	-0,071	0,126
-697,729	800,000	0,077	0,168
-696,714	187,132	-0,094	0,104
-695,699	-3,910	-0,024	0,012
-694,685	400,671	-0,096	-0,151
-693,670	-200,000	-0,023	-0,084
-692,656	130,108	-0,077	0,073
-691,641	-200,000	0,024	0,088
-690,627	-200,000	0,008	0,074
-689,612	-124,301	-0,139	-0,016
-688,597	256,028	0,038	0,049
-687,583	-85,141	-0,134	0,031
-686,568	49,101	-0,105	-0,073
-685,554	-200,000	-0,015	0,126
-684,539	800,000	-0,011	-0,034
-683,524	-200,000	0,007	-0,074
-682,510	-200,000	-0,009	0,097
-681,495	49,507	-0,104	0,073
-680,481	450,915	-0,057	-0,094
-679,466	-41,195	-0,133	0,051
-678,451	233,542	0,130	-0,159
-677,437	58,693	0,038	0,028
-676,422	273,447	0,132	0,173
-675,408	294,607	-0,048	-0,066
-674,393	672,850	-0,043	0,084
-673,378	-105,312	-0,152	0,026
-672,364	-200,000	0,005	0,018
-671,349	69,776	0,104	-0,079
-670,335	58,721	-0,010	-0,007
-669,320	53,405	-0,019	-0,014
-668,305	-99,152	0,191	0,036
-667,291	-200,000	-0,022	-0,139
-666,276	175,119	-0,055	-0,060
-665,262	74,553	-0,075	0,058
-664,247	800,000	-0,024	-0,076
-663,232	-200,000	-0,002	-0,159
-662,218	252,921	0,058	-0,074
-661,203	800,000	0,026	0,066
-660,189	-200,000	0,000	0,054
-659,174	-135,649	-0,055	-0,005
-658,159	800,000	-0,038	-0,122
-657,145	123,677	-0,101	-0,094
-656,130	-115,986	0,138	0,019
-655,116	150,986	0,099	0,100
-654,101	-26,939	-0,027	0,012
-653,086	265,328	-0,203	0,263
-652,072	215,393	0,068	0,081
-651,057	350,602	-0,055	0,082
-650,043	-48,597	0,129	0,046
-649,028	141,431	0,079	-0,078
-648,014	-52,511	-0,127	-0,043
-646,999	800,000	0,025	0,056
-645,984	630,310	-0,058	-0,110
-644,970	-43,453	-0,115	-0,043
-643,955	63,566	-0,081	0,060
-642,941	232,874	-0,031	0,038
-641,926	247,397	-0,038	0,048
-640,911	83,519	0,094	0,076
-639,897	800,000	0,014	0,028
-638,882	-163,930	-0,052	-0,002
-637,868	612,707	-0,010	-0,018
-636,853	-200,000	-0,054	0,178
-635,838	104,053	-0,117	-0,102
-634,824	512,290	-0,007	0,012
-633,809	52,471	0,213	0,151
-632,795	-48,739	0,055	0,019
-631,780	110,863	0,021	0,019
-630,765	175,944	-0,047	-0,050
-629,751	84,698	0,052	-0,043
-628,736	-200,000	0,001	0,092
-627,722	6,652	-0,043	0,024
-626,707	-200,000	-0,002	0,081
-625,692	67,855	0,063	-0,048
-624,678	42,530	-0,017	0,012
-623,663	-12,282	0,081	-0,039
-622,649	-131,374	0,164	-0,016
-621,634	-76,824	-0,132	-0,034
-620,619	-133,619	-0,043	-0,004
-619,605	-98,061	-0,064	0,012
-618,590	-21,513	-0,193	0,087
-617,576	-200,000	0,023	0,110
-616,561	800,000	0,027	0,068
-615,546	-38,464	0,049	0,019
-614,532	800,000	-0,065	-0,195
-613,517	346,284	-0,016	0,024
-612,503	27,507	0,127	-0,079
-611,488	-200,000	0,000	-0,020
-610,474	-200,000	-0,014	0,177
-609,459	307,673	0,021	0,029
-608,444	-162,787	-0,129	0,005
-607,430	200,346	-0,118	-0,134
-606,415	-200,000	0,005	0,121
-605,401	-127,183	0,085	-0,009
-604,386	69,113	-0,046	0,035
-603,371	91,206	0,153	0,127
-602,357	-114,228	-0,037	-0,005
-601,342	-52,114	-0,124	-0,042
-600,328	-125,423	0,053	-0,006
-599,313	165,210	-0,033	-0,035
-598,298	23,171	0,097	-0,059
-597,284	400,669	-0,043	-0,067
-596,269	-200,000	-0,020	0,107
-595,255	-163,430	-0,107	-0,004
-594,240	127,347	-0,053	-0,050
-593,225	-200,000	-0,005	-0,102
-592,211	-0,658	-0,157	-0,082
-591,196	-200,000	-0,023	0,084
-590,182	-90,284	0,089	0,019
-589,167	41,984	0,060	0,040
-588,152	-98,981	-0,142	0,027
-587,138	152,528	-0,040	-0,041
-586,123	-200,000	-0,005	-0,091
-585,109	489,878	-0,095	-0,161
-584,094	-94,293	-0,087	-0,018
-583,079	193,554	-0,031	-0,035
-582,065	50,870	0,187	-0,131
-581,050	-200,000	-0,017	0,070
-580,036	-200,000	-0,002	-0,097
-579,021	-98,015	-0,189	-0,036
-578,006	-126,527	-0,219	-0,024
-576,992	800,000	-0,045	0,095
-575,977	-85,161	-0,037	-0,008
-574,963	370,092	0,048	0,072
-573,948	-200,000	-0,008	0,029
-572,934	-114,414	0,029	-0,004
-571,919	-194,950	-0,029	-0,000
-570,904	-200,000	-0,009	-0,089
-569,890	800,000	0,034	-0,101
-568,875	28,588	-0,008	-0,005
-567,861	291,412	-0,054	0,073
-566,846	35,157	-0,103	0,066
-565,831	-200,000	-0,001	-0,048
-564,817	-200,000	-0,014	-0,133
-563,802	-138,290	0,058	0,005
-562,788	534,069	0,069	-0,121
-561,773	51,715	0,104	-0,073
-560,758	-200,000	-0,045	-0,178
-559,744	-7,378	0,150	0,075
-558,729	-29,658	-0,052	-0,022
-557,715	220,353	0,036	-0,042
-556,700	-200,000	-0,091	0,000
-555,685	-34,732	-0,046	0,018
-554,671	-200,000	0,020	0,079
-553,656	458,061	0,094	-0,155
-552,642	150,125	-0,064	-0,064
-551,627	-32,183	-0,089	0,037
-550,612	202,163	-0,075	0,086
-549,598	157,263	0,049	0,051
-548,583	200,303	0,067	-0,076
-547,569	574,403	-0,025	-0,046
-546,554	-200,000	0,026	0,088
-545,539	-110,230	-0,062	-0,009
-544,525	-1,214	0,057	-0,030
-543,510	46,731	-0,072	-0,049
-542,496	800,000	-0,025	-0,055
-541,481	152,148	-0,122	-0,123
-540,466	-200,000	-0,004	-0,021
-539,452	800,000	0,037	0,100
-538,437	-173,588	0,108	0,002
-537,423	-200,000	0,013	0,055
-536,408	-15,693	-0,078	0,037
-535,393	21,350	-0,077	-0,046
-534,379	44,811	-0,036	-0,025
-533,364	268,557	0,042	-0,055
-532,350	173,203	0,136	0,145
-531,335	303,194	-0,024	0,033
-530,321	-39,971	0,131	0,050
-529,306	-47,342	-0,104	-0,037
-528,291	-34,826	-0,083	-0,033
-527,277	-200,000	0,028	-0,103
-526,262	21,356	-0,066	-0,039
-525,248	459,923	0,040	-0,067
-524,233	391,073	-0,039	0,059
-523,218	122,510	0,131	0,121
-522,204	-200,000	0,031	-0,111
-521,189	208,570	-0,129	-0,149
-520,175	-120,904	0,107	-0,013
-519,160	-200,000	0,035	-0,119
-518,145	-200,000	0,001	0,163
-517,131	70,547	0,013	-0,010
-516,116	65,639	0,015	-0,011
-515,102	277,271	0,025	-0,033
-514,087	800,000	0,040	0,100
-513,072	-113,920	-0,146	-0,021
-512,058	-200,000	0,021	-0,075
-511,043	-200,000	-0,010	-0,062
-510,029	-97,447	0,021	0,004
-509,014	-13,206	0,118	0,057
-507,999	115,439	0,033	0,030
-506,985	207,147	-0,075	-0,086
-505,970	800,000	-0,047	-0,134
-504,956	-42,224	-0,017	0,006
-503,941	-200,000	-0,012	-0,045
-502,926	29,631	0,071	-0,045
-501,912	610,309	0,024	0,044
-500,897	-200,000	-0,029	0,164
-499,883	202,568	0,124	0,141
-498,868	-89,167	-0,023	0,005
-497,853	800,000	0,025	-0,060
-496,839	192,040	-0,114	-0,127
-495,824	133,362	0,025	0,024
-494,810	28,511	-0,066	-0,041
-493,795	-70,746	-0,009	-0,003
-492,781	156,211	-0,074	0,075
-491,766	164,552	-0,044	0,046
-490,751	-1,926	-0,126	-0,065
-489,737	-6,112	-0,041	0,021
-488,722	800,000	0,043	0,116
-487,708	800,000	0,045	0,121
-486,693	-174,466	-0,044	0,001
-485,678	-200,000	0,012	-0,085
-484,664	288,072	-0,048	-0,065
-483,649	-35,797	-0,038	-0,015
-482,635	64,090	0,089	0,066
-481,620	46,134	0,054	0,037
-480,605	-122,132	0,113	0,014
-479,591	800,000	0,061	0,134
-478,576	228,292	-0,031	0,037
-477,562	344,389	0,049	-0,071
-476,547	800,000	0,028	-0,065
-475,532	-91,068	-0,027	0,006
-474,518	-65,050	-0,054	-0,016
-473,503	800,000	0,057	0,148
-472,489	108,939	0,103	0,091
-471,474	-41,463	-0,049	0,019
-470,459	-157,286	-0,048	-0,002
-469,445	37,768	0,045	-0,030
-468,430	-200,000	-0,014	-0,068
-467,416	-135,590	0,046	0,004
-466,401	-200,000	0,017	0,075
-465,386	-200,000	-0,014	0,096
-464,372	-13,907	0,118	0,056
-463,357	-5,796	0,070	0,035
-462,343	148,974	-0,049	0,049
-461,328	-200,000	-0,007	0,042
-460,313	-200,000	-0,002	-0,020
-459,299	-122,134	0,026	-0,003
-458,284	-74,281	0,059	0,016
-457,270	-181,211	-0,062	-0,001
-456,255	800,000	0,003	0,009
-455,241	686,867	-0,020	-0,038
-454,226	-130,569	-0,049	0,005
-453,211	800,000	0,040	-0,096
-452,197	800,000	0,062	0,149
-451,182	-15,310	0,092	0,043
-450,168	-200,000	-0,014	-0,081
-449,153	-200,000	0,006	0,130
-448,138	800,000	0,031	-0,075
-447,124	800,000	0,013	0,032
-446,109	-200,000	-0,004	0,085
-445,095	800,000	-0,014	0,039
-444,080	294,560	0,076	0,103
-443,065	-44,297	0,100	-0,037
-442,051	202,924	0,017	-0,019
-441,036	181,656	0,014	-0,015
-440,022	-200,000	-0,019	-0,119
-439,007	403,156	0,112	-0,174
-437,992	-200,000	-0,007	0,057
-436,978	613,593	0,060	0,111
-435,963	800,000	0,027	0,063
-434,949	-200,000	0,028	0,100
-433,934	-15,059	-0,048	-0,023
-432,919	-200,000	0,046	-0,180
-431,905	129,883	0,047	-0,044
-430,890	-38,862	0,065	-0,025
-429,876	800,000	0,002	0,004
-428,861	-200,000	0,006	0,041
-427,846	-52,072	-0,125	-0,042
-426,832	-99,350	-0,063	0,012
-425,817	-200,000	-0,031	-0,126
-424,803	-200,000	0,053	-0,178
-423,788	-54,571	0,102	-0,034
-422,773	800,000	-0,021	-0,066
-421,759	-18,610	0,045	0,020
-420,744	134,562	0,124	-0,118
-419,730	-200,000	0,029	-0,142
-418,715	121,943	-0,044	-0,041
-417,701	236,757	-0,021	0,026
-416,686	46,544	0,080	-0,055
-415,671	-64,273	0,166	0,049
-414,657	-148,476	-0,061	-0,004
-413,642	429,536	-0,014	-0,022
-412,628	-27,057	0,086	-0,037
-411,613	416,957	-0,047	-0,074
-410,598	-148,964	-0,049	-0,003
-409,584	-200,000	0,013	0,057
-408,569	800,000	0,027	0,077
-407,555	60,598	0,025	-0,018
-406,540	800,000	0,097	0,208
-405,525	-37,060	-0,099	0,039
-404,511	-200,000	-0,028	-0,165
-403,496	800,000	0,014	-0,032
-402,482	-4,327	0,061	-0,031
-401,467	48,486	0,093	0,064
-400,452	46,541	0,055	0,037
-399,438	-200,000	0,019	0,171
-398,423	800,000	-0,014	0,037
-397,409	171,099	-0,045	-0,047
-396,394	800,000	-0,052	-0,109
-395,379	446,847	0,087	-0,141
-394,365	262,477	0,052	-0,066
-393,350	220,417	-0,033	0,039
-392,336	-6,851	-0,057	0,028
-391,321	68,609	-0,059	0,044
-390,306	-132,785	-0,084	-0,008
-389,292	-200,000	0,041	-0,174
-388,277	800,000	0,022	0,051
-387,263	-58,474	-0,078	0,025
-386,248	583,737	0,064	-0,116
-385,233	367,807	0,043	0,064
-384,219	-200,000	0,007	0,033
-383,204	259,447	0,047	0,060
-382,190	225,252	0,042	-0,049
-381,175	-32,275	0,070	-0,029
-380,160	402,217	-0,053	-0,082
-379,146	-200,000	-0,010	0,131
-378,131	34,058	-0,089	0,057
-377,117	386,911	-0,081	0,123
-376,102	26,667	-0,013	-0,008
-375,088	-200,000	0,003	-0,083
-374,073	126,325	0,056	0,052
-373,058	1,690	0,093	0,049
-372,044	90,526	-0,086	-0,071
-371,029	-134,788	0,044	-0,004
-370,015	-200,000	-0,022	-0,095
-369,000	202,635	-0,105	-0,119
-367,985	-10,642	-0,114	0,055
-366,971	-101,332	-0,094	0,017
-365,956	44,542	-0,081	0,055
-364,942	663,824	0,030	0,056
-363,927	628,055	-0,038	0,071
-362,912	-111,405	0,136	0,020
-361,898	247,244	0,026	-0,033
-360,883	107,346	-0,030	-0,026
-359,869	-55,648	0,085	-0,028
-358,854	-94,207	-0,086	-0,017
-357,839	405,638	0,046	0,072
-356,825	-40,606	-0,054	0,020
-355,810	-200,000	-0,004	-0,035
-354,796	16,727	0,088	0,051
-353,781	225,099	0,072	-0,086
-352,766	73,285	0,117	0,090
-351,752	-200,000	0,020	0,100
-350,737	-152,809	0,069	-0,004
-349,723	474,590	0,025	0,041
-348,708	-200,000	-0,035	0,121
-347,693	-82,052	0,072	-0,017
-346,679	-37,018	-0,096	-0,038
-345,664	-200,000	0,023	-0,096
-344,650	-165,414	-0,029	0,001
-343,635	47,048	0,012	-0,008
-342,620	-45,245	0,112	0,041
-341,606	-164,437	0,076	-0,003
-340,591	168,995	-0,077	-0,081
-339,577	-160,339	-0,042	-0,002
-338,562	-200,000	-0,113	-0,000
-337,548	800,000	0,056	0,138
-336,533	-70,048	0,139	0,038
-335,518	14,608	0,089	0,051
-334,504	-200,000	-0,010	0,068
-333,489	32,662	0,077	-0,049
-332,475	-200,000	0,021	-0,136
-331,460	274,224	-0,050	-0,065
-330,445	-75,810	0,106	0,027
-329,431	-200,000	0,008	0,046
-328,416	-30,708	-0,060	0,025
-327,402	-200,000	-0,003	-0,027
-326,387	714,841	0,022	0,043
-325,372	-55,496	-0,125	-0,041
-324,358	800,000	0,015	0,039
-323,343	-43,022	0,046	0,017
-322,329	70,389	-0,088	-0,067
-321,314	481,116	-0,090	-0,150
-320,299	-200,000	-0,003	0,138
-319,285	-61,277	-0,061	0,019
-318,270	-72,718	0,057	-0,015
-317,256	538,979	-0,054	0,094
-316,241	178,906	-0,071	0,076
-315,226	-200,000	0,008	0,116
-314,212	334,340	-0,050	0,070
-313,197	-200,000	0,059	0,204
-312,183	88,793	0,062	0,051
-311,168	-200,000	0,004	-0,098
-310,153	-10,534	-0,134	-0,065
-309,139	-148,381	-0,058	0,003
-308,124	-70,817	0,050	-0,014
-307,110	-139,908	0,051	-0,004
-306,095	59,397	-0,054	0,039
-305,080	480,462	-0,059	0,098
-304,066	-23,068	-0,068	-0,030
-303,051	-53,782	0,102	-0,034
-302,037	651,879	-0,008	-0,015
-301,022	-3,020	0,112	-0,057
-300,008	-156,404	0,179	0,008
-298,993	668,515	0,045	0,086
-297,978	-29,375	0,109	0,046
-296,964	-200,000	0,010	0,071
-295,949	-5,454	-0,070	-0,035
-294,935	328,292	0,044	-0,063
-293,920	192,696	-0,137	0,151
-292,905	800,000	-0,016	0,039
-291,891	257,678	-0,037	-0,046
-290,876	504,171	-0,060	0,102
-289,862	-163,211	-0,136	-0,005
-288,847	-200,000	-0,028	-0,135
-287,832	68,695	-0,094	-0,070
-286,818	134,177	0,063	0,060
-285,803	-124,325	0,175	-0,020
-284,789	88,360	-0,084	-0,068
-283,774	-13,785	0,175	0,082
-282,759	46,674	0,034	0,023
-281,745	800,000	-0,052	-0,144
-280,730	342,381	-0,037	0,053
-279,716	50,354	0,108	-0,075
-278,701	-46,246	0,068	0,024
-277,686	800,000	0,055	-0,138
-276,672	800,000	0,024	0,060
-275,657	-68,373	0,142	0,040
-274,643	442,952	-0,068	0,109
-273,628	315,478	-0,086	0,119
-272,613	24,306	0,062	0,038
-271,599	17,034	0,145	0,084
-270,584	800,000	-0,036	-0,110
-269,570	-86,533	-0,017	0,004
-268,555	-109,020	-0,085	-0,013
-267,540	-200,000	-0,030	-0,112
-266,526	101,018	0,062	0,053
-265,511	-200,000	0,023	-0,093
-264,497	800,000	0,019	0,040
-263,482	49,565	0,011	0,008
-262,467	-67,570	-0,068	0,019
-261,453	-68,999	0,074	0,021
-260,438	800,000	-0,050	-0,116
-259,424	-200,000	-0,001	-0,094
-258,409	157,135	0,051	-0,052
-257,395	-200,000	0,010	-0,070
-256,380	800,000	-0,026	0,053
-255,365	-14,189	0,045	0,021
-254,351	472,445	-0,075	0,125
-253,336	146,316	-0,092	-0,090
-252,322	-200,000	0,003	-0,101
-251,307	741,810	0,035	-0,070
-250,292	40,426	0,008	-0,005
-249,278	-18,582	-0,125	0,057
-248,263	387,274	-0,030	0,045
-247,249	151,797	-0,041	-0,041
-246,234	231,210	-0,039	0,046
-245,219	-178,182	-0,067	-0,001
-244,205	-200,000	-0,003	-0,025
-243,190	800,000	-0,054	0,121
-242,176	-122,720	0,120	0,014
-241,161	-100,144	0,112	-0,020
-240,146	312,206	0,037	0,051
-239,132	338,517	-0,037	-0,052
-238,117	-200,000	-0,010	-0,118
-237,103	-200,000	-0,001	0,027
-236,088	792,786	0,029	-0,058
-235,073	-141,337	0,045	0,003
-234,059	160,720	-0,042	0,043
-233,044	605,738	0,018	-0,033
-232,030	180,658	0,082	0,088
-231,015	-134,683	-0,044	-0,004
-230,000	-200,000	0,011	0,046
-228,986	-29,051	0,141	-0,059
-227,971	-200,000	-0,001	0,079
-226,957	304,856	0,090	0,123
-225,942	-116,247	0,045	0,006
-224,927	-11,473	-0,062	0,030
-223,913	-137,870	-0,155	0,013
-222,898	-8,085	-0,106	-0,052
-221,884	-103,652	-0,103	-0,017
-220,869	-139,755	0,190	-0,015
-219,855	220,351	-0,050	0,059
-218,840	-200,000	-0,011	0,104
-217,825	-135,670	-0,129	0,011
-216,811	28,768	-0,093	0,058
-215,796	-23,095	-0,037	0,016
-214,782	-200,000	-0,031	-0,136
-213,767	279,643	0,091	0,119
-212,752	-94,871	-0,044	-0,009
-211,738	-200,000	-0,000	-0,021
-210,723	-36,333	0,104	-0,041
-209,709	-148,533	0,016	0,001
-208,694	521,423	-0,071	-0,122
-207,679	10,613	-0,058	0,032
-206,665	-16,463	-0,064	0,030
-205,650	336,874	0,087	0,124
-204,636	2,158	-0,100	0,052
-203,621	800,000	0,000	-0,001
-202,606	177,383	-0,084	0,090
-201,592	-55,706	-0,157	-0,051
-200,577	-122,748	-0,115	-0,013
-199,563	800,000	-0,014	0,035
-198,548	54,095	0,141	0,099
-197,533	-200,000	0,036	-0,118
-196,519	-131,797	0,195	-0,018
-195,504	-90,920	-0,131	0,027
-194,490	-104,166	-0,137	0,023
-193,475	-200,000	-0,018	-0,122
-192,460	800,000	-0,023	0,070
-191,446	-200,000	0,005	0,065
-190,431	154,826	0,034	-0,034
-189,417	55,071	-0,027	-0,019
-188,402	43,507	0,057	-0,038
-187,387	55,896	-0,026	-0,018
-186,373	-200,000	0,006	-0,121
-185,358	800,000	0,040	-0,119
-184,344	-32,376	0,025	0,010
-183,329	50,119	-0,039	-0,027
-182,315	-134,798	-0,105	0,009
-181,300	-83,430	-0,084	0,019
-180,285	300,191	-0,033	-0,044
-179,271	-135,816	-0,068	-0,006
-178,256	-73,284	-0,057	-0,015
-177,242	217,324	0,043	-0,050
-176,227	266,269	0,029	0,037
-175,212	5,790	0,042	0,022
-174,198	350,833	-0,046	-0,066
-173,183	-8,033	-0,126	0,062
-172,169	118,038	-0,099	0,089
-171,154	800,000	-0,003	0,010
-170,139	800,000	0,045	0,108
-169,125	47,138	-0,067	-0,045
-168,110	47,547	0,147	0,100
-167,096	-155,796	-0,096	0,004
-166,081	97,636	0,090	-0,075
-165,066	288,637	0,079	-0,104
-164,052	10,866	0,064	0,035
-163,037	800,000	0,070	-0,151
-162,023	189,425	-0,014	-0,015
-161,008	588,319	0,018	0,033
-159,993	800,000	0,064	-0,134
-158,979	-200,000	-0,015	0,052
-157,964	800,000	-0,029	0,060
-156,950	52,533	0,105	0,073
-155,935	216,165	0,074	0,086
-154,920	509,160	0,058	-0,099
-153,906	284,011	0,045	0,058
-152,891	368,154	-0,038	-0,055
-151,877	-200,000	0,011	-0,079
-150,862	61,585	0,023	0,017
-149,847	167,244	0,059	0,061
-148,833	151,037	-0,084	0,083
-147,818	4,696	-0,161	0,086
-146,804	70,468	0,070	-0,053
-145,789	-74,252	-0,104	0,027
-144,775	800,000	-0,038	-0,108
-143,760	-200,000	0,051	-0,169
-142,745	-42,659	-0,134	0,050
-141,731	-200,000	-0,019	0,093
-140,716	350,495	-0,042	0,061
-139,702	383,821	-0,067	0,100
-138,687	229,256	-0,016	-0,019
-137,672	-165,104	-0,067	0,002
-136,658	106,823	0,008	0,007
-135,643	110,472	-0,048	0,042
-134,629	15,550	-0,051	0,029
-133,614	-200,000	-0,006	0,087
-132,599	642,195	-0,031	-0,058
-131,585	800,000	0,020	-0,045
-130,570	258,490	0,012	0,015
-129,556	-43,470	0,118	0,043
-128,541	-178,289	0,099	-0,002
-127,526	-0,450	-0,012	0,006
-126,512	-200,000	-0,007	-0,072
-125,497	75,126	0,081	0,062
-124,483	120,465	0,028	0,025
-123,468	-200,000	0,006	0,036
-122,453	-200,000	-0,013	-0,068
-121,439	250,697	0,096	-0,119
-120,424	-200,000	-0,013	-0,109
-119,410	-200,000	0,017	0,068
