DTS Sentinel unit serial number:	SN410029Multiplexer serial number:	ORYXHardware model number:	OX2-SRSoftware version number:	ORYX F/W v4,00 Oryx Data Collector v3.7.2.0data status	okinstallation	B6 Nyhavnadifferential loss correction	single-endedforward channel	channel 2reverse channel	N/Adate	2023/12/08time	16:05:08forward acquisition time	300,00reverse acquisition time	0,00gamma	499,1914k internal	0,3159k external	0,3159temperature offset calibration	1,0000default loss term (dB/km)	0,3820temperature slope calibration	1,0000multiplexer offset coefficient	1,0000multiplexer slope coefficient	1,0000fibre end	0,00T internal ref (°C)	15,09T ext. ref 1 (°C)	-1,48T ext. ref 2 (°C)	-1,49length (m)	temperature (°C)	Stokes	anti-Stokes-744,400	24,395	0,165	-0,100
-743,385	-174,628	-0,331	-0,007
-742,371	-23,366	0,149	0,066
-741,356	-124,635	-0,235	0,026
-740,342	-100,998	0,154	0,028
-739,327	-27,895	-0,302	0,128
-738,312	46,135	-0,021	0,014
-737,298	-150,832	-0,155	-0,009
-736,283	34,843	0,094	-0,061
-735,269	-97,651	-0,215	0,041
-734,254	96,679	0,101	0,086
-733,239	-24,664	-0,528	-0,231
-732,225	-105,829	0,205	-0,034
-731,210	-57,938	-0,076	0,024
-730,196	800,000	-0,035	-0,076
-729,181	-87,722	-0,114	-0,025
-728,167	252,066	-0,095	-0,120
-727,152	-81,607	-0,044	-0,010
-726,137	-149,719	0,062	0,004
-725,123	241,443	-0,035	0,043
-724,108	19,864	-0,062	-0,037
-723,094	1,672	-0,044	0,023
-722,079	312,809	-0,083	-0,115
-721,064	-200,000	-0,005	-0,055
-720,050	-200,000	-0,004	0,030
-719,035	6,648	0,028	-0,015
-718,021	77,120	0,006	-0,005
-717,006	139,005	-0,078	0,076
-715,991	73,486	-0,165	-0,127
-714,977	800,000	-0,026	-0,058
-713,962	800,000	-0,036	-0,117
-712,948	270,347	0,066	-0,086
-711,933	-138,892	-0,086	-0,007
-710,918	-200,000	-0,036	0,133
-709,904	-200,000	0,001	-0,031
-708,889	15,947	-0,115	-0,066
-707,875	-200,000	-0,006	0,039
-706,860	-200,000	-0,010	0,127
-705,845	-139,605	0,077	-0,006
-704,831	30,640	-0,136	0,085
-703,816	183,877	0,012	-0,013
-702,802	-200,000	-0,018	0,076
-701,787	800,000	-0,025	0,078
-700,772	-122,153	-0,061	-0,007
-699,758	-200,000	0,006	0,044
-698,743	102,055	-0,058	0,050
-697,729	800,000	-0,038	0,104
-696,714	-200,000	-0,030	0,170
-695,699	71,697	-0,022	0,017
-694,685	485,152	-0,064	-0,107
-693,670	440,388	-0,092	0,148
-692,656	-200,000	-0,013	-0,056
-691,641	-54,363	0,031	-0,010
-690,627	-137,469	0,067	-0,005
-689,612	164,024	-0,073	0,076
-688,597	-91,559	-0,244	-0,051
-687,583	-200,000	-0,004	-0,136
-686,568	-200,000	-0,033	-0,137
-685,554	-128,628	-0,132	-0,014
-684,539	429,570	-0,029	-0,047
-683,524	25,075	0,190	0,115
-682,510	-122,663	-0,170	-0,020
-681,495	15,122	-0,028	-0,016
-680,481	404,032	-0,170	-0,264
-679,466	-42,578	0,067	-0,025
-678,451	-200,000	-0,005	-0,228
-677,437	-186,306	0,040	0,000
-676,422	-200,000	0,005	-0,135
-675,408	235,155	-0,074	-0,090
-674,393	-143,216	0,110	0,008
-673,378	355,665	-0,034	-0,051
-672,364	-200,000	-0,021	-0,113
-671,349	238,233	0,016	-0,019
-670,335	287,517	0,013	-0,018
-669,320	193,276	-0,050	-0,056
-668,305	-80,303	-0,058	0,014
-667,291	-200,000	0,007	-0,049
-666,276	-110,148	-0,172	0,026
-665,262	246,325	0,039	0,048
-664,247	332,558	0,024	0,034
-663,232	323,421	-0,013	-0,018
-662,218	22,909	0,153	0,092
-661,203	152,806	-0,110	0,110
-660,189	58,884	0,087	0,062
-659,174	800,000	-0,032	0,072
-658,159	367,721	-0,057	0,085
-657,145	800,000	-0,024	-0,063
-656,130	800,000	-0,023	0,057
-655,116	122,752	-0,052	0,048
-654,101	-200,000	-0,007	-0,066
-653,086	-99,523	0,051	-0,009
-652,072	800,000	-0,024	-0,058
-651,057	-200,000	-0,026	-0,125
-650,043	800,000	0,056	-0,145
-649,028	-200,000	-0,008	0,031
-648,014	-86,528	0,140	-0,031
-646,999	72,223	0,068	-0,052
-645,984	-107,328	-0,106	0,017
-644,970	-17,284	-0,108	-0,050
-643,955	202,287	-0,143	-0,162
-642,941	76,171	-0,107	-0,083
-641,926	9,649	-0,064	0,036
-640,911	-2,715	-0,065	-0,033
-639,897	-200,000	0,010	-0,111
-638,882	-200,000	-0,012	0,042
-637,868	-31,346	0,113	-0,047
-636,853	196,337	-0,094	-0,105
-635,838	227,383	-0,133	-0,159
-634,824	-133,651	-0,014	-0,001
-633,809	800,000	0,018	-0,044
-632,795	266,879	-0,054	0,069
-631,780	-200,000	-0,007	0,087
-630,765	-200,000	0,025	-0,126
-629,751	-5,592	-0,051	-0,026
-628,736	13,480	0,064	-0,036
-627,722	-200,000	-0,038	-0,182
-626,707	-186,772	0,085	0,001
-625,692	-49,503	0,113	-0,039
-624,678	-93,460	0,040	0,008
-623,663	-92,203	-0,127	0,026
-622,649	-200,000	0,014	-0,118
-621,634	800,000	0,023	-0,070
-620,619	-200,000	0,005	-0,038
-619,605	608,192	-0,041	0,075
-618,590	537,893	0,075	-0,132
-617,576	-103,301	-0,021	-0,004
-616,561	117,051	0,042	-0,038
-615,546	299,783	-0,046	-0,063
-614,532	442,205	-0,055	0,089
-613,517	426,009	-0,011	0,017
-612,503	367,277	-0,045	0,066
-611,488	-86,552	-0,034	0,008
-610,474	28,361	0,046	-0,029
-609,459	133,378	0,080	0,076
-608,444	171,325	0,052	-0,054
-607,430	-59,674	-0,046	-0,014
-606,415	-194,872	-0,140	-0,001
-605,401	37,451	0,070	0,045
-604,386	213,683	-0,021	-0,024
-603,371	-136,788	0,024	0,002
-602,357	-200,000	-0,023	-0,079
-601,342	-61,329	0,105	-0,032
-600,328	-59,166	-0,107	-0,034
-599,313	-20,484	-0,042	0,019
-598,298	45,481	-0,031	0,021
-597,284	-80,188	0,173	0,042
-596,269	78,458	0,024	-0,019
-595,255	800,000	-0,024	-0,077
-594,240	-200,000	-0,001	-0,013
-593,225	607,338	-0,043	-0,079
-592,211	420,364	0,055	-0,087
-591,196	-47,295	-0,123	-0,044
-590,182	-181,350	0,099	0,001
-589,167	31,076	0,022	0,014
-588,152	-200,000	0,003	0,049
-587,138	-51,946	-0,015	-0,005
-586,123	-15,111	-0,064	-0,030
-585,109	-138,466	-0,097	0,008
-584,094	800,000	0,041	-0,126
-583,079	174,143	0,099	0,105
-582,065	47,842	-0,003	0,002
-581,050	412,686	-0,019	-0,030
-580,036	-98,934	-0,173	0,032
-579,021	800,000	-0,031	-0,073
-578,006	227,638	-0,060	0,072
-576,992	-200,000	0,016	0,119
-575,977	-107,223	0,070	0,011
-574,963	215,589	-0,032	0,037
-573,948	800,000	-0,053	0,117
-572,934	-200,000	0,019	0,125
-571,919	498,579	-0,039	-0,065
-570,904	-136,329	-0,058	0,005
-569,890	-93,624	0,026	0,005
-568,875	-200,000	-0,145	-0,000
-567,861	191,256	-0,144	0,159
-566,846	-157,126	0,107	0,005
-565,831	-200,000	-0,022	-0,099
-564,817	179,665	-0,066	-0,071
-563,802	-200,000	-0,005	-0,097
-562,788	183,952	-0,050	0,054
-561,773	439,083	0,038	0,061
-560,758	31,869	0,060	0,038
-559,744	84,506	-0,106	-0,085
-558,729	-75,286	-0,063	0,016
-557,715	-200,000	-0,001	0,022
-556,700	-200,000	0,027	0,210
-555,685	-200,000	0,004	-0,075
-554,671	-52,138	0,110	-0,037
-553,656	-200,000	-0,016	-0,090
-552,642	129,028	-0,012	-0,011
-551,627	-110,638	-0,122	-0,018
-550,612	529,464	-0,072	0,125
-549,598	-43,382	-0,139	0,051
-548,583	603,872	-0,070	-0,128
-547,569	22,169	0,084	-0,050
-546,554	23,845	-0,020	-0,012
-545,539	148,321	0,115	0,114
-544,525	15,611	0,060	0,034
-543,510	86,198	0,130	-0,105
-542,496	-125,174	-0,012	0,001
-541,481	31,202	-0,166	-0,104
-540,466	92,349	-0,110	-0,091
-539,452	-200,000	-0,021	0,071
-538,437	4,895	0,043	0,023
-537,423	800,000	-0,083	0,189
-536,408	1,248	-0,093	-0,049
-535,393	-200,000	-0,025	-0,129
-534,379	800,000	0,013	0,030
-533,364	213,184	0,042	-0,049
-532,350	270,289	0,049	0,063
-531,335	-200,000	0,001	0,068
-530,321	-31,711	-0,112	0,046
-529,306	-19,777	0,038	0,017
-528,291	-84,794	-0,134	-0,031
-527,277	-101,855	0,057	0,010
-526,262	240,200	0,063	0,077
-525,248	-7,273	0,022	-0,011
-524,233	-200,000	0,001	-0,132
-523,218	-2,206	0,087	0,044
-522,204	-200,000	-0,009	0,073
-521,189	-200,000	-0,012	-0,063
-520,175	-111,666	-0,068	-0,010
-519,160	259,048	0,093	0,117
-518,145	11,731	0,162	0,091
-517,131	-200,000	0,030	0,102
-516,116	-113,399	-0,162	0,023
-515,102	97,581	0,066	0,056
-514,087	314,703	-0,065	-0,090
-513,072	-75,093	-0,140	0,036
-512,058	-79,839	0,021	0,005
-511,043	254,270	-0,058	-0,073
-510,029	-200,000	-0,003	0,072
-509,014	800,000	0,025	0,076
-507,999	45,211	0,073	-0,049
-506,985	79,865	-0,115	-0,090
-505,970	-110,662	-0,062	0,009
-504,956	-88,960	-0,073	-0,016
-503,941	66,008	-0,122	0,090
-502,926	-200,000	0,007	-0,057
-501,912	226,120	0,068	0,081
-500,897	-200,000	0,015	0,153
-499,883	28,311	-0,081	0,050
-498,868	302,644	-0,029	0,040
-497,853	95,765	0,068	-0,057
-496,839	-84,738	-0,034	0,008
-495,824	800,000	-0,035	-0,107
-494,810	180,589	0,026	-0,028
-493,795	611,052	0,090	0,165
-492,781	-70,424	-0,152	0,042
-491,766	-109,661	0,046	0,007
-490,751	800,000	-0,006	0,019
-489,737	-83,713	0,103	-0,024
-488,722	-200,000	0,002	-0,068
-487,708	-200,000	-0,008	0,055
-486,693	605,796	0,029	0,053
-485,678	800,000	0,039	-0,113
-484,664	-200,000	-0,028	-0,105
-483,649	-100,611	-0,131	0,023
-482,635	85,124	0,061	0,049
-481,620	800,000	0,026	-0,078
-480,605	248,722	0,019	-0,024
-479,591	-200,000	0,027	0,122
-478,576	545,098	0,129	0,225
-477,562	14,174	-0,076	-0,043
-476,547	-200,000	-0,004	0,037
-475,532	-99,959	0,107	0,019
-474,518	-200,000	0,021	-0,103
-473,503	-52,917	0,076	0,025
-472,489	-6,875	0,081	0,040
-471,474	72,684	-0,057	-0,043
-470,459	58,648	0,146	0,105
-469,445	-152,061	-0,049	-0,003
-468,430	-48,690	-0,025	0,009
-467,416	-76,666	0,047	-0,012
-466,401	-108,044	-0,074	0,012
-465,386	-70,003	0,141	0,039
-464,372	-200,000	-0,011	0,051
-463,357	-200,000	0,010	0,076
-462,343	-5,744	-0,154	-0,077
-461,328	60,081	0,050	-0,036
-460,313	-9,030	0,059	0,029
-459,299	-200,000	-0,009	0,042
-458,284	-200,000	-0,009	-0,043
-457,270	-83,562	-0,107	0,025
-456,255	-200,000	0,024	-0,098
-455,241	387,341	0,035	0,053
-454,226	344,526	0,062	-0,088
-453,211	800,000	0,031	0,066
-452,197	457,155	0,024	0,038
-451,182	217,031	0,065	-0,075
-450,168	-200,000	0,027	0,091
-449,153	-83,928	-0,044	0,010
-448,138	800,000	0,016	-0,048
-447,124	265,143	0,056	0,071
-446,109	800,000	0,088	-0,179
-445,095	-200,000	0,001	-0,042
-444,080	273,035	0,029	0,038
-443,065	800,000	-0,031	0,072
-442,051	-17,576	0,033	0,015
-441,036	208,142	-0,073	0,084
-440,022	-122,184	-0,156	-0,018
-439,007	134,723	0,017	0,016
-437,992	211,020	0,044	0,051
-436,978	800,000	-0,056	-0,114
-435,963	-200,000	-0,000	-0,097
-434,949	628,932	-0,099	0,182
-433,934	663,332	-0,043	0,081
-432,919	143,659	-0,049	-0,048
-431,905	-96,223	-0,096	0,018
-430,890	144,904	0,039	0,038
-429,876	-74,524	0,022	0,006
-428,861	-200,000	-0,031	0,135
-427,846	-77,602	0,063	0,016
-426,832	356,478	-0,042	-0,061
-425,817	222,458	-0,042	0,049
-424,803	800,000	-0,057	-0,122
-423,788	-200,000	-0,029	-0,110
-422,773	-31,112	0,153	0,063
-421,759	-91,786	0,042	0,009
-420,744	800,000	-0,036	0,076
-419,730	-200,000	-0,012	0,065
-418,715	257,920	0,035	-0,044
-417,701	-200,000	-0,001	0,019
-416,686	-115,230	0,152	-0,021
-415,671	-115,495	0,118	0,016
-414,657	593,032	0,069	-0,124
-413,642	-122,124	0,032	0,004
-412,628	-101,439	0,131	-0,023
-411,613	-94,839	-0,083	0,016
-410,598	-49,533	0,041	-0,014
-409,584	-200,000	0,006	0,052
-408,569	-55,717	0,065	0,021
-407,555	194,280	-0,106	-0,117
-406,540	132,146	-0,028	0,026
-405,525	277,199	0,061	-0,079
-404,511	552,259	-0,035	0,061
-403,496	178,222	-0,118	-0,125
-402,482	800,000	-0,009	0,023
-401,467	800,000	-0,032	-0,069
-400,452	-200,000	-0,004	0,016
-399,438	800,000	-0,045	0,119
-398,423	-32,410	-0,050	-0,020
-397,409	-200,000	0,007	-0,074
-396,394	-56,703	-0,048	-0,015
-395,379	-200,000	0,013	-0,042
-394,365	-113,291	0,165	-0,023
-393,350	14,212	0,047	-0,026
-392,336	240,048	-0,031	0,038
-391,321	-97,522	0,059	0,011
-390,306	-111,383	-0,075	-0,011
-389,292	-49,681	0,058	0,020
-388,277	-200,000	-0,016	0,085
-387,263	22,604	0,121	0,072
-386,248	190,356	-0,095	-0,104
-385,233	-200,000	0,003	0,047
-384,219	83,519	0,048	-0,038
-383,204	-91,216	-0,031	0,006
-382,190	-200,000	0,005	0,040
-381,175	-47,026	0,096	0,034
-380,160	204,820	-0,014	-0,016
-379,146	-24,283	0,074	0,032
-378,131	6,020	0,072	0,039
-377,117	-85,498	-0,160	-0,036
-376,102	800,000	0,037	-0,075
-375,088	800,000	0,019	-0,060
-374,073	258,572	0,032	0,041
-373,058	326,230	-0,052	0,072
-372,044	-200,000	-0,002	0,145
-371,029	-29,813	0,136	-0,056
-370,015	192,085	0,106	0,116
-369,000	-200,000	0,001	-0,060
-367,985	-105,015	-0,112	-0,018
-366,971	800,000	-0,025	-0,067
-365,956	800,000	-0,050	-0,116
-364,942	-78,055	-0,068	0,017
-363,927	-79,206	0,138	-0,034
-362,912	605,742	0,028	-0,051
-361,898	800,000	0,069	-0,142
-360,883	-42,842	-0,099	-0,036
-359,869	192,680	-0,014	-0,015
-358,854	-200,000	-0,004	-0,116
-357,839	-200,000	0,029	0,111
-356,825	232,318	0,058	-0,069
-355,810	45,258	-0,020	-0,013
-354,796	240,521	0,072	0,087
-353,781	-200,000	0,006	0,143
-352,766	-71,121	0,088	0,024
-351,752	-200,000	-0,036	-0,127
-350,737	-200,000	-0,008	0,104
-349,723	-200,000	0,014	0,060
-348,708	-200,000	-0,004	-0,017
-347,693	472,926	-0,056	-0,092
-346,679	747,662	0,039	-0,076
-345,664	333,765	-0,035	0,050
-344,650	109,689	-0,075	-0,065
-343,635	121,902	0,140	0,127
-342,620	-200,000	0,016	0,115
-341,606	497,622	0,015	0,025
-340,591	-200,000	0,031	-0,152
-339,577	-200,000	0,009	-0,034
-338,562	173,122	0,084	-0,088
-337,548	-163,245	0,066	-0,002
-336,533	-200,000	0,000	0,085
-335,518	147,349	-0,061	0,060
-334,504	477,943	0,116	0,191
-333,489	800,000	0,041	0,091
-332,475	128,565	0,083	0,076
-331,460	154,901	-0,064	-0,064
-330,445	387,107	-0,049	-0,074
-329,431	-200,000	0,007	-0,032
-328,416	35,856	-0,128	0,082
-327,402	-78,275	0,097	-0,024
-326,387	137,429	0,103	-0,098
-325,372	800,000	-0,069	-0,141
-324,358	-114,763	-0,068	0,009
-323,343	-68,116	-0,056	-0,016
-322,329	800,000	-0,086	0,199
-321,314	800,000	0,049	0,110
-320,299	800,000	-0,034	0,086
-319,285	582,490	-0,054	0,096
-318,270	800,000	-0,016	0,048
-317,256	800,000	-0,064	0,140
-316,241	-85,970	-0,116	0,026
-315,226	-49,862	0,118	0,040
-314,212	800,000	-0,011	0,032
-313,197	-200,000	-0,011	0,089
-312,183	165,723	0,134	0,137
-311,168	10,379	-0,086	0,048
-310,153	-40,785	-0,190	-0,071
-309,139	-69,829	0,029	-0,008
-308,124	-118,688	0,094	-0,012
-307,110	23,182	-0,019	0,011
-306,095	91,705	0,024	0,019
-305,080	-91,920	0,032	0,007
-304,066	-68,378	0,163	-0,046
-303,051	-200,000	-0,054	-0,181
-302,037	-200,000	-0,003	-0,021
-301,022	87,948	0,067	-0,054
-300,008	-200,000	0,003	-0,029
-298,993	522,299	0,075	0,129
-297,978	276,371	0,036	0,046
-296,964	-200,000	-0,043	-0,151
-295,949	20,695	-0,054	0,032
-294,935	6,448	-0,044	-0,023
-293,920	800,000	0,037	-0,098
-292,905	-100,459	-0,144	0,026
-291,891	37,882	0,137	0,088
-290,876	-28,210	0,054	-0,023
-289,862	55,552	0,075	0,053
-288,847	-82,076	-0,071	-0,017
-287,832	622,873	-0,026	-0,048
-286,818	48,579	-0,048	0,032
-285,803	128,180	-0,062	0,057
-284,789	563,065	0,032	-0,057
-283,774	-200,000	0,033	0,145
-282,759	-25,599	-0,036	0,015
-281,745	800,000	-0,040	-0,101
-280,730	800,000	-0,049	-0,127
-279,716	800,000	0,037	-0,099
-278,701	800,000	-0,051	-0,156
-277,686	235,227	0,039	-0,047
-276,672	49,801	-0,090	-0,061
-275,657	100,931	-0,070	0,059
-274,643	800,000	0,061	-0,127
-273,628	-200,000	0,006	-0,147
-272,613	84,702	-0,068	0,054
-271,599	800,000	0,083	0,178
-270,584	-200,000	0,010	0,060
-269,570	-120,176	0,028	-0,003
-268,555	-112,233	0,079	0,011
-267,540	162,462	-0,033	0,034
-266,526	-136,323	0,159	0,013
-265,511	-20,928	0,030	0,013
-264,497	35,344	-0,095	-0,060
-263,482	5,422	0,065	0,035
-262,467	434,469	-0,067	0,106
-261,453	179,929	0,094	-0,100
-260,438	-200,000	0,000	-0,011
-259,424	-74,216	0,074	0,019
-258,409	-200,000	-0,054	-0,196
-257,395	-103,821	0,079	0,013
-256,380	-11,610	0,068	0,032
-255,365	180,930	0,089	0,094
-254,351	777,562	-0,060	0,119
-253,336	-200,000	0,071	-0,000
-252,322	113,617	0,042	0,037
-251,307	21,304	-0,213	-0,125
-250,292	283,446	0,118	0,153
-249,278	-200,000	0,024	0,098
-248,263	-200,000	-0,026	0,086
-247,249	11,412	0,026	-0,014
-246,234	-200,000	-0,017	-0,110
-245,219	-58,717	-0,114	0,036
-244,205	800,000	0,012	0,036
-243,190	-55,197	0,116	0,037
-242,176	-124,930	0,165	0,018
-241,161	-2,589	-0,099	0,050
-240,146	202,952	-0,100	0,111
-239,132	128,987	-0,067	0,062
-238,117	-89,268	0,025	-0,005
-237,103	-200,000	0,026	-0,120
-236,088	442,432	0,067	-0,107
-235,073	-83,894	0,102	-0,023
-234,059	-200,000	-0,002	0,073
-233,044	800,000	0,021	-0,058
-232,030	-37,341	-0,064	0,025
-231,015	800,000	0,028	-0,073
-230,000	800,000	-0,050	-0,118
-228,986	-200,000	-0,008	0,063
-227,971	-13,258	0,102	0,048
-226,957	-200,000	-0,013	0,054
-225,942	31,520	-0,104	0,065
-224,927	53,748	-0,022	0,015
-223,913	222,312	0,021	0,024
-222,898	-105,218	-0,063	-0,010
-221,884	-200,000	0,019	-0,074
-220,869	70,005	0,143	-0,106
-219,855	74,945	0,038	0,029
-218,840	-81,077	-0,105	0,025
-217,825	-200,000	0,027	0,112
-216,811	-200,000	0,017	0,095
-215,796	-200,000	0,024	-0,201
-214,782	69,708	-0,106	-0,079
-213,767	43,280	0,129	0,085
-212,752	-200,000	-0,008	-0,038
-211,738	50,456	-0,044	-0,030
-210,723	213,760	-0,016	0,018
-209,709	489,252	-0,042	-0,070
-208,694	800,000	0,028	0,077
-207,679	756,421	0,056	-0,110
-206,665	-200,000	-0,021	0,073
-205,650	8,172	0,048	0,026
-204,636	300,436	-0,070	-0,093
-203,621	-178,159	0,090	-0,001
-202,606	-200,000	-0,019	0,090
-201,592	125,437	-0,039	0,035
-200,577	556,195	0,052	0,090
-199,563	-200,000	0,005	0,044
-198,548	-25,823	0,074	0,031
-197,533	9,334	-0,084	-0,046
-196,519	-45,086	0,047	-0,017
-195,504	-200,000	-0,013	-0,243
-194,490	14,598	-0,128	-0,072
-193,475	475,111	-0,079	-0,129
-192,460	-200,000	0,038	-0,137
-191,446	380,588	0,056	0,083
-190,431	-135,702	-0,137	0,012
-189,417	-132,870	-0,134	0,012
-188,402	188,353	-0,027	-0,029
-187,387	10,926	-0,066	0,036
-186,373	-42,881	0,104	-0,038
-185,358	-149,114	0,093	-0,005
-184,344	-103,478	0,075	0,013
-183,329	-167,969	0,093	-0,003
-182,315	-200,000	0,024	0,100
-181,300	-123,914	0,080	-0,009
-180,285	-200,000	0,019	-0,071
-179,271	-121,876	-0,133	0,016
-178,256	4,008	-0,025	0,013
-177,242	-134,438	0,125	-0,011
-176,227	-43,354	0,044	0,016
-175,212	-200,000	-0,013	0,097
-174,198	-63,699	0,062	0,018
-173,183	-200,000	-0,009	-0,094
-172,169	13,669	-0,122	0,068
-171,154	-59,115	-0,110	0,034
-170,139	215,666	0,066	0,075
-169,125	-138,996	0,057	-0,004
-168,110	56,174	-0,119	0,083
-167,096	749,042	0,067	-0,131
-166,081	-108,215	-0,187	-0,029
-165,066	-200,000	0,001	-0,028
-164,052	800,000	-0,047	-0,108
-163,037	55,256	0,102	-0,071
-162,023	214,636	0,073	0,084
-161,008	526,679	-0,045	-0,078
-159,993	-200,000	-0,025	0,095
-158,979	116,609	-0,115	-0,101
-157,964	95,983	0,094	-0,077
-156,950	-38,222	0,026	0,010
-155,935	-184,243	-0,057	-0,001
-154,920	51,990	0,028	0,019
-153,906	105,266	0,110	0,094
-152,891	161,919	0,097	0,098
-151,877	-165,700	-0,149	-0,005
-150,862	-56,554	-0,049	-0,016
-149,847	-38,464	0,118	0,045
-148,833	-168,224	-0,131	0,004
-147,818	-200,000	-0,001	0,040
-146,804	-129,712	-0,058	-0,006
-145,789	-56,200	-0,035	0,011
-144,775	-110,503	-0,065	0,010
-143,760	-200,000	0,033	-0,116
-142,745	74,563	-0,083	-0,063
-141,731	-26,144	0,056	-0,024
-140,716	94,093	0,088	0,072
-139,702	-140,720	0,063	0,005
-138,687	34,330	0,112	0,070
-137,672	72,935	0,071	0,053
-136,658	309,621	0,058	0,079
-135,643	512,082	0,032	0,054
-134,629	-200,000	-0,013	-0,128
-133,614	208,692	0,016	-0,018
-132,599	-200,000	0,036	0,141
-131,585	43,627	-0,082	-0,054
-130,570	-200,000	0,001	0,095
-129,556	-55,497	-0,089	-0,029
-128,541	800,000	0,013	-0,037
-127,526	-61,950	0,056	0,017
-126,512	257,791	0,068	0,084
-125,497	-135,880	-0,036	0,003
-124,483	-97,719	0,187	0,034
-123,468	-49,713	-0,050	-0,017
-122,453	-200,000	0,001	0,038
-121,439	20,890	-0,102	0,060
-120,424	-200,000	-0,024	-0,104
-119,410	-200,000	0,017	0,082
