DTS Sentinel unit serial number:	SN410029Multiplexer serial number:	ORYXHardware model number:	OX2-SRSoftware version number:	ORYX F/W v4,00 Oryx Data Collector v3.7.2.0data status	okinstallation	B6 Nyhavnadifferential loss correction	single-endedforward channel	channel 2reverse channel	N/Adate	2023/12/08time	10:25:08forward acquisition time	300,00reverse acquisition time	0,00gamma	499,1914k internal	0,3164k external	0,3164temperature offset calibration	1,0000default loss term (dB/km)	0,3820temperature slope calibration	1,0000multiplexer offset coefficient	1,0000multiplexer slope coefficient	1,0000fibre end	0,00T internal ref (°C)	14,35T ext. ref 1 (°C)	-1,30T ext. ref 2 (°C)	-1,27length (m)	temperature (°C)	Stokes	anti-Stokes-744,400	82,445	0,048	-0,038
-743,385	-135,952	-0,402	0,034
-742,371	-21,777	0,101	-0,045
-741,356	-40,791	-0,205	0,078
-740,342	-200,000	-0,002	-0,049
-739,327	-81,698	-0,304	0,073
-738,312	767,166	0,071	0,143
-737,298	-164,724	-0,301	-0,010
-736,283	-67,853	0,129	-0,037
-735,269	-53,188	-0,219	0,073
-734,254	-117,573	0,117	0,015
-733,239	-94,636	-0,519	-0,103
-732,225	-124,118	0,183	0,021
-731,210	-200,000	0,020	0,152
-730,196	275,187	0,045	0,059
-729,181	22,445	-0,096	0,057
-728,167	-62,603	-0,084	-0,025
-727,152	-149,220	0,085	0,005
-726,137	-87,637	-0,147	0,032
-725,123	-200,000	-0,195	-0,001
-724,108	-200,000	0,013	-0,113
-723,094	28,527	-0,155	-0,096
-722,079	208,704	-0,130	0,150
-721,064	-107,067	0,186	-0,030
-720,050	800,000	-0,044	-0,097
-719,035	-39,398	-0,064	-0,024
-718,021	-113,272	-0,023	0,003
-717,006	-20,796	-0,076	0,034
-715,991	-49,335	-0,128	-0,045
-714,977	800,000	0,031	-0,066
-713,962	-132,022	0,043	0,004
-712,948	137,345	-0,071	0,068
-711,933	52,828	0,119	0,083
-710,918	-200,000	-0,008	-0,042
-709,904	-57,502	0,062	0,020
-708,889	-11,930	0,039	-0,019
-707,875	-62,521	-0,071	0,021
-706,860	192,632	-0,093	0,104
-705,845	-106,038	0,109	0,018
-704,831	-51,549	0,062	0,021
-703,816	266,257	0,078	0,101
-702,802	800,000	0,084	-0,181
-701,787	-100,535	-0,218	-0,039
-700,772	800,000	-0,064	0,185
-699,758	314,737	0,087	-0,121
-698,743	800,000	-0,022	0,068
-697,729	800,000	-0,040	-0,101
-696,714	-200,000	-0,034	0,195
-695,699	-29,623	0,044	0,019
-694,685	-200,000	-0,017	-0,142
-693,670	-200,000	0,010	-0,118
-692,656	-200,000	0,010	-0,045
-691,641	-200,000	0,007	-0,045
-690,627	180,862	-0,039	0,042
-689,612	-38,262	0,132	0,051
-688,597	226,450	-0,063	-0,075
-687,583	-200,000	-0,038	-0,127
-686,568	166,983	0,022	0,023
-685,554	-200,000	-0,018	-0,067
-684,539	39,852	0,152	-0,100
-683,524	800,000	-0,017	-0,051
-682,510	82,629	0,076	0,060
-681,495	162,406	-0,101	0,104
-680,481	88,355	-0,130	-0,106
-679,466	139,024	-0,040	0,038
-678,451	-54,173	0,055	-0,018
-677,437	-73,747	0,120	-0,032
-676,422	800,000	-0,050	0,126
-675,408	-117,838	-0,041	0,005
-674,393	-39,264	-0,039	-0,015
-673,378	-86,265	-0,104	-0,023
-672,364	245,099	-0,014	-0,017
-671,349	-200,000	-0,004	0,063
-670,335	49,528	0,032	-0,022
-669,320	-105,061	0,100	-0,017
-668,305	677,672	-0,059	-0,114
-667,291	489,317	0,033	0,055
-666,276	-62,565	-0,085	-0,026
-665,262	-14,408	-0,117	-0,055
-664,247	-127,561	-0,161	0,017
-663,232	438,150	0,111	0,178
-662,218	-25,488	-0,009	-0,004
-661,203	25,579	-0,030	-0,018
-660,189	375,888	-0,047	0,071
-659,174	429,192	0,024	-0,038
-658,159	-11,227	0,155	0,075
-657,145	579,339	-0,068	-0,123
-656,130	800,000	0,061	-0,154
-655,116	-39,202	0,057	0,022
-654,101	-103,652	-0,044	-0,007
-653,086	-196,103	0,069	-0,000
-652,072	800,000	0,039	-0,123
-651,057	124,837	0,082	-0,076
-650,043	303,918	-0,077	-0,106
-649,028	163,111	-0,121	-0,125
-648,014	226,465	0,086	-0,103
-646,999	800,000	-0,009	0,024
-645,984	119,686	0,065	-0,059
-644,970	108,152	-0,070	-0,061
-643,955	-200,000	-0,008	-0,102
-642,941	283,451	-0,074	-0,097
-641,926	-33,570	-0,044	-0,018
-640,911	220,902	0,084	0,099
-639,897	-200,000	-0,031	-0,132
-638,882	-105,568	-0,080	-0,013
-637,868	-12,976	0,061	0,029
-636,853	463,541	0,047	-0,077
-635,838	82,677	0,010	0,008
-634,824	170,036	0,058	0,061
-633,809	-16,033	-0,063	0,029
-632,795	27,971	0,036	0,022
-631,780	64,740	0,076	0,056
-630,765	78,622	-0,045	-0,035
-629,751	-200,000	-0,025	-0,131
-628,736	-38,113	-0,140	-0,054
-627,722	-42,838	-0,052	-0,019
-626,707	-108,376	-0,062	0,010
-625,692	-200,000	0,003	-0,027
-624,678	-200,000	0,005	0,025
-623,663	800,000	-0,021	0,053
-622,649	25,971	-0,125	0,076
-621,634	167,196	-0,049	-0,051
-620,619	-128,039	-0,102	0,011
-619,605	-200,000	-0,014	0,074
-618,590	31,933	-0,071	0,045
-617,576	800,000	0,013	-0,036
-616,561	-148,236	-0,087	0,005
-615,546	22,357	-0,066	0,040
-614,532	127,931	-0,070	0,065
-613,517	17,995	-0,036	0,021
-612,503	800,000	0,025	-0,059
-611,488	107,802	0,069	0,060
-610,474	-200,000	0,018	-0,094
-609,459	67,069	-0,093	0,069
-608,444	32,242	-0,099	-0,062
-607,430	-200,000	-0,011	-0,042
-606,415	-200,000	0,002	-0,080
-605,401	119,627	-0,027	-0,025
-604,386	-200,000	-0,006	0,033
-603,371	-101,355	0,074	-0,013
-602,357	-200,000	0,024	-0,116
-601,342	60,960	-0,081	0,059
-600,328	430,126	-0,027	-0,043
-599,313	-37,264	-0,024	0,009
-598,298	800,000	0,013	0,028
-597,284	-64,459	0,049	0,015
-596,269	361,732	-0,021	-0,031
-595,255	800,000	0,056	0,121
-594,240	-200,000	-0,045	-0,170
-593,225	-137,622	-0,044	0,004
-592,211	47,490	-0,075	0,051
-591,196	419,277	0,071	-0,111
-590,182	40,889	-0,044	-0,029
-589,167	-163,421	0,061	0,002
-588,152	45,305	0,056	-0,037
-587,138	-200,000	0,013	-0,055
-586,123	64,568	0,018	0,013
-585,109	40,928	-0,049	0,033
-584,094	98,862	-0,129	-0,109
-583,079	800,000	0,042	-0,132
-582,065	-66,663	0,121	-0,035
-581,050	461,938	0,059	0,096
-580,036	32,997	-0,119	0,075
-579,021	318,517	-0,043	-0,060
-578,006	-113,949	0,056	-0,008
-576,992	800,000	0,042	0,102
-575,977	-200,000	-0,013	0,051
-574,963	-32,800	0,106	-0,043
-573,948	52,555	-0,162	0,113
-572,934	-71,631	0,067	0,018
-571,919	125,166	-0,102	-0,094
-570,904	-54,871	-0,106	-0,035
-569,890	49,496	0,101	-0,069
-568,875	800,000	0,008	0,022
-567,861	-25,347	0,115	-0,049
-566,846	111,642	0,102	0,090
-565,831	162,319	-0,031	0,032
-564,817	59,805	0,039	-0,028
-563,802	343,807	-0,046	0,066
-562,788	150,294	-0,052	-0,052
-561,773	-200,000	-0,007	-0,125
-560,758	330,680	0,022	-0,032
-559,744	-52,350	-0,085	-0,028
-558,729	707,411	-0,021	-0,041
-557,715	-200,000	-0,043	-0,146
-556,700	356,939	-0,060	-0,087
-555,685	-127,868	-0,069	0,007
-554,671	-200,000	-0,004	-0,017
-553,656	-200,000	0,000	0,100
-552,642	-190,687	0,152	-0,001
-551,627	-200,000	-0,016	0,077
-550,612	28,903	0,035	-0,021
-549,598	63,520	-0,027	-0,020
-548,583	422,608	0,033	-0,052
-547,569	-7,169	-0,007	0,004
-546,554	-200,000	0,015	0,094
-545,539	770,900	-0,017	0,035
-544,525	800,000	-0,052	0,106
-543,510	251,089	0,061	-0,076
-542,496	-200,000	0,011	-0,037
-541,481	-200,000	0,032	-0,205
-540,466	199,134	-0,065	0,072
-539,452	-200,000	0,019	0,062
-538,437	800,000	-0,026	0,079
-537,423	-173,347	0,074	0,002
-536,408	386,801	-0,036	-0,054
-535,393	230,755	-0,085	0,102
-534,379	138,325	0,067	-0,064
-533,364	-200,000	-0,020	-0,097
-532,350	-200,000	0,001	0,025
-531,335	-184,778	0,106	-0,001
-530,321	-81,078	0,176	-0,042
-529,306	800,000	-0,035	0,071
-528,291	103,897	-0,106	-0,091
-527,277	-87,914	0,097	-0,021
-526,262	-124,962	0,126	0,014
-525,248	-85,245	0,052	-0,012
-524,233	-200,000	-0,016	0,059
-523,218	-200,000	0,003	0,052
-522,204	-89,463	0,056	0,012
-521,189	41,734	-0,072	0,048
-520,175	-2,717	-0,059	0,030
-519,160	19,841	0,033	0,020
-518,145	645,889	0,057	0,106
-517,131	218,229	-0,133	0,155
-516,116	14,228	0,131	0,074
-515,102	800,000	-0,020	-0,060
-514,087	-200,000	-0,020	-0,180
-513,072	-9,012	0,144	-0,070
-512,058	155,884	0,037	-0,038
-511,043	-73,672	0,086	-0,023
-510,029	440,735	-0,061	-0,097
-509,014	-55,303	-0,005	0,002
-507,999	-200,000	0,022	0,092
-506,985	32,738	-0,084	-0,053
-505,970	1,626	-0,066	0,034
-504,956	-52,344	-0,032	-0,011
-503,941	800,000	-0,020	-0,061
-502,926	-32,964	0,032	0,013
-501,912	-169,087	0,104	-0,003
-500,897	-113,953	-0,142	-0,020
-499,883	379,313	-0,028	0,042
-498,868	-200,000	-0,004	-0,048
-497,853	22,842	-0,102	-0,061
-496,839	126,045	0,089	0,082
-495,824	275,386	-0,051	0,066
-494,810	-200,000	0,004	-0,076
-493,795	305,256	-0,015	-0,020
-492,781	-72,374	-0,143	0,038
-491,766	-141,819	-0,035	0,003
-490,751	-49,219	-0,014	-0,005
-489,737	313,589	0,047	0,065
-488,722	-51,692	-0,141	0,048
-487,708	-200,000	-0,000	0,133
-486,693	600,493	-0,049	-0,089
-485,678	36,324	0,031	0,020
-484,664	-200,000	-0,001	-0,062
-483,649	343,063	-0,057	-0,082
-482,635	116,738	-0,061	0,054
-481,620	43,334	0,035	0,023
-480,605	-93,500	0,052	-0,010
-479,591	-200,000	-0,016	0,065
-478,576	349,043	0,043	-0,063
-477,562	417,259	-0,101	-0,158
-476,547	-81,073	-0,082	0,020
-475,532	51,310	-0,106	0,073
-474,518	-200,000	0,020	-0,086
-473,503	218,944	-0,027	0,031
-472,489	-200,000	-0,001	0,113
-471,474	-200,000	0,002	-0,029
-470,459	-37,770	-0,142	-0,055
-469,445	215,241	-0,114	0,132
-468,430	-200,000	-0,016	0,122
-467,416	-31,800	0,211	0,086
-466,401	686,651	0,012	-0,023
-465,386	83,594	0,088	0,070
-464,372	746,915	0,084	0,165
-463,357	-200,000	-0,020	0,162
-462,343	-200,000	0,005	-0,058
-461,328	-118,835	-0,047	0,006
-460,313	-4,769	0,038	0,019
-459,299	149,766	0,033	-0,033
-458,284	-200,000	-0,013	0,065
-457,270	-200,000	-0,031	0,121
-456,255	800,000	0,042	-0,094
-455,241	-200,000	-0,028	-0,150
-454,226	-200,000	-0,011	-0,122
-453,211	299,185	0,039	-0,052
-452,197	-200,000	0,011	0,087
-451,182	-200,000	-0,019	-0,147
-450,168	-121,053	-0,126	0,015
-449,153	-24,835	0,049	0,021
-448,138	-169,189	-0,061	0,002
-447,124	-181,423	-0,145	-0,002
-446,109	114,225	0,108	-0,096
-445,095	-47,329	0,145	-0,051
-444,080	403,376	0,078	0,120
-443,065	-200,000	0,024	-0,135
-442,051	775,062	0,041	0,083
-441,036	-77,850	0,100	-0,025
-440,022	-200,000	-0,007	-0,099
-439,007	800,000	-0,040	-0,085
-437,992	446,085	-0,046	0,074
-436,978	83,885	0,095	-0,075
-435,963	-35,235	0,118	0,047
-434,949	-200,000	0,005	0,053
-433,934	-163,082	-0,073	-0,003
-432,919	800,000	-0,055	-0,141
-431,905	628,626	-0,035	-0,065
-430,890	-200,000	-0,019	-0,075
-429,876	129,104	0,050	-0,046
-428,861	82,632	0,036	-0,028
-427,846	17,389	-0,051	-0,030
-426,832	679,819	-0,053	-0,101
-425,817	-200,000	0,015	-0,093
-424,803	-200,000	0,000	-0,082
-423,788	406,338	-0,067	-0,104
-422,773	-10,713	0,123	0,059
-421,759	79,144	-0,102	0,080
-420,744	-200,000	0,027	0,244
-419,730	-200,000	0,001	-0,072
-418,715	-126,102	-0,097	-0,010
-417,701	-200,000	-0,005	-0,050
-416,686	-81,236	-0,090	0,021
-415,671	800,000	0,007	-0,020
-414,657	-94,761	-0,036	0,007
-413,642	-27,619	0,099	-0,041
-412,628	39,516	-0,087	0,056
-411,613	84,328	-0,099	0,079
-410,598	-200,000	0,032	-0,201
-409,584	-23,940	0,026	-0,011
-408,569	-14,770	0,101	0,047
-407,555	320,246	0,030	-0,042
-406,540	126,335	-0,093	-0,085
-405,525	-200,000	0,012	-0,103
-404,511	505,305	-0,043	0,073
-403,496	-157,022	-0,040	-0,002
-402,482	31,798	0,066	-0,041
-401,467	10,418	0,077	0,042
-400,452	800,000	0,046	0,121
-399,438	190,366	0,090	-0,098
-398,423	336,594	-0,132	-0,186
-397,409	164,225	-0,042	0,043
-396,394	212,929	-0,026	-0,030
-395,379	-14,824	-0,112	-0,052
-394,365	64,047	0,173	0,126
-393,350	36,284	0,116	0,074
-392,336	52,810	0,131	-0,091
-391,321	-200,000	0,007	-0,079
-390,306	87,746	-0,055	-0,044
-389,292	142,745	-0,084	-0,081
-388,277	-200,000	-0,010	-0,074
-387,263	194,673	0,056	0,062
-386,248	279,866	-0,051	0,066
-385,233	-100,578	0,151	0,027
-384,219	207,045	0,020	-0,022
-383,204	-56,166	-0,085	-0,027
-382,190	656,424	0,024	-0,045
-381,175	89,575	-0,048	0,039
-380,160	-71,469	0,020	0,005
-379,146	-96,276	0,142	0,027
-378,131	-39,586	-0,087	-0,033
-377,117	-200,000	0,009	0,032
-376,102	-200,000	0,009	0,040
-375,088	-200,000	0,007	-0,109
-374,073	-54,860	0,165	0,054
-373,058	-200,000	-0,028	0,204
-372,044	800,000	-0,019	0,039
-371,029	-166,980	0,105	-0,003
-370,015	122,754	-0,051	0,047
-369,000	31,415	0,077	-0,048
-367,985	-66,058	-0,132	0,038
-366,971	-59,272	0,067	0,021
-365,956	529,174	0,041	0,071
-364,942	-93,913	0,176	-0,035
-363,927	800,000	0,062	0,161
-362,912	800,000	0,029	0,075
-361,898	472,690	0,077	-0,127
-360,883	417,848	0,064	-0,099
-359,869	-143,615	-0,060	-0,004
-358,854	-129,550	0,160	0,016
-357,839	800,000	0,042	-0,117
-356,825	787,512	0,015	0,030
-355,810	-21,958	0,074	0,032
-354,796	-200,000	-0,024	-0,114
-353,781	12,872	0,103	-0,057
-352,766	29,463	-0,125	0,077
-351,752	-200,000	-0,016	0,115
-350,737	-28,228	-0,163	0,068
-349,723	204,551	-0,043	0,049
-348,708	14,433	0,032	-0,018
-347,693	235,874	-0,070	-0,085
-346,679	-200,000	0,007	0,051
-345,664	-119,863	-0,036	0,004
-344,650	-164,569	-0,135	-0,004
-343,635	-45,753	0,118	-0,042
-342,620	800,000	-0,021	0,067
-341,606	-31,736	0,073	-0,029
-340,591	800,000	0,043	-0,088
-339,577	-200,000	0,006	0,030
-338,562	476,133	0,082	-0,135
-337,548	-168,047	-0,116	-0,003
-336,533	-158,158	-0,019	-0,001
-335,518	-141,655	0,079	0,006
-334,504	-46,192	0,179	0,063
-333,489	32,441	-0,057	-0,035
-332,475	-111,399	-0,040	0,006
-331,460	-84,851	-0,086	-0,019
-330,445	-122,257	0,153	-0,018
-329,431	66,419	0,111	0,082
-328,416	295,341	0,107	0,142
-327,402	-200,000	-0,042	0,211
-326,387	-200,000	-0,008	0,102
-325,372	35,538	0,031	0,019
-324,358	6,240	0,064	0,034
-323,343	0,756	-0,047	0,024
-322,329	106,567	0,049	0,042
-321,314	-200,000	0,037	0,127
-320,299	-62,387	-0,084	0,025
-319,285	216,294	-0,034	-0,039
-318,270	19,047	0,058	0,033
-317,256	800,000	-0,047	0,118
-316,241	-200,000	0,019	-0,091
-315,226	28,935	0,051	0,031
-314,212	-200,000	0,019	0,063
-313,197	86,347	-0,039	0,031
-312,183	38,365	-0,040	0,025
-311,168	-73,069	-0,050	0,013
-310,153	208,420	0,063	-0,072
-309,139	175,735	0,096	-0,101
-308,124	-46,926	0,099	0,035
-307,110	-200,000	0,010	0,053
-306,095	-200,000	0,009	0,107
-305,080	124,289	-0,072	0,065
-304,066	-7,933	0,031	0,015
-303,051	-200,000	-0,015	0,056
-302,037	-41,919	-0,118	0,044
-301,022	-200,000	-0,017	-0,092
-300,008	37,412	0,100	0,064
-298,993	-200,000	-0,008	-0,067
-297,978	187,806	-0,116	0,126
-296,964	-185,692	0,078	-0,001
-295,949	-42,225	-0,160	-0,059
-294,935	329,707	0,042	0,059
-293,920	78,985	-0,028	-0,022
-292,905	-200,000	0,006	0,021
-291,891	376,475	0,101	0,150
-290,876	-53,280	-0,111	0,037
-289,862	-200,000	-0,006	0,032
-288,847	37,496	-0,009	-0,006
-287,832	-200,000	0,006	-0,121
-286,818	-114,543	0,058	0,008
-285,803	-200,000	0,000	-0,057
-284,789	109,392	0,088	0,076
-283,774	800,000	0,062	0,138
-282,759	800,000	-0,029	0,086
-281,745	-128,954	-0,071	0,007
-280,730	408,183	-0,062	-0,095
-279,716	213,240	0,069	0,079
-278,701	-200,000	-0,019	0,061
-277,686	137,300	0,096	0,091
-276,672	-158,983	-0,044	0,002
-275,657	726,084	0,038	-0,074
-274,643	196,777	-0,094	-0,104
-273,628	197,415	0,047	-0,052
-272,613	-200,000	0,013	-0,080
-271,599	-129,539	0,059	0,006
-270,584	-89,688	0,080	-0,017
-269,570	-153,154	0,028	0,001
-268,555	-127,620	-0,247	0,026
-267,540	528,356	0,035	0,060
-266,526	110,501	0,038	-0,033
-265,511	53,680	0,029	-0,020
-264,497	-200,000	0,028	-0,130
-263,482	-63,028	0,058	-0,017
-262,467	32,231	-0,127	0,079
-261,453	-200,000	-0,002	-0,087
-260,438	-105,864	0,099	-0,016
-259,424	-200,000	0,010	-0,035
-258,409	-98,323	0,074	0,014
-257,395	-137,038	0,081	-0,007
-256,380	-45,308	0,136	-0,049
-255,365	-200,000	-0,001	0,162
-254,351	79,458	-0,159	0,123
-253,336	-8,888	-0,072	-0,035
-252,322	23,378	-0,214	-0,127
-251,307	169,474	0,032	0,033
-250,292	15,610	0,082	0,046
-249,278	209,697	-0,013	-0,014
-248,263	260,113	0,052	-0,065
-247,249	17,836	-0,055	-0,032
-246,234	-23,203	-0,100	0,043
-245,219	64,242	-0,079	0,057
-244,205	144,487	0,100	-0,096
-243,190	48,112	-0,080	0,054
-242,176	18,300	0,085	0,049
-241,161	35,085	-0,068	0,043
-240,146	326,500	0,062	0,086
-239,132	-175,564	0,058	-0,001
-238,117	-107,219	0,063	0,010
-237,103	-160,814	-0,046	0,002
-236,088	-200,000	-0,002	0,069
-235,073	-124,246	0,228	0,025
-234,059	52,468	-0,059	-0,041
-233,044	-21,868	0,034	0,015
-232,030	800,000	-0,043	-0,130
-231,015	-28,873	-0,056	-0,023
-230,000	-200,000	0,003	-0,058
-228,986	800,000	-0,019	0,053
-227,971	-97,344	0,034	0,006
-226,957	462,530	0,077	0,125
-225,942	169,712	0,019	0,020
-224,927	4,579	0,084	0,044
-223,913	679,093	-0,027	-0,051
-222,898	42,125	-0,092	-0,060
-221,884	-163,647	-0,056	0,002
-220,869	216,662	0,097	0,112
-219,855	73,886	0,032	0,024
-218,840	150,101	-0,027	-0,026
-217,825	492,995	0,049	-0,081
-216,811	-10,539	-0,173	0,082
-215,796	715,800	-0,053	-0,103
-214,782	-200,000	0,004	0,115
-213,767	-200,000	0,022	0,127
-212,752	387,845	0,056	0,084
-211,738	66,135	-0,109	0,079
-210,723	97,206	0,090	-0,074
-209,709	174,232	0,055	0,057
-208,694	462,701	-0,043	-0,069
-207,679	-167,563	0,047	0,001
-206,665	11,830	0,062	-0,034
-205,650	61,965	0,149	0,107
-204,636	198,040	0,052	-0,058
-203,621	-180,720	-0,095	-0,001
-202,606	73,757	0,063	-0,047
-201,592	454,603	-0,043	-0,068
-200,577	-145,956	0,098	0,006
-199,563	-89,427	0,112	-0,024
-198,548	-200,000	-0,007	0,148
-197,533	-183,908	-0,195	0,002
-196,519	-103,706	0,098	0,016
-195,504	800,000	0,018	-0,037
-194,490	-133,817	-0,108	-0,010
-193,475	100,541	-0,099	0,083
-192,460	0,278	0,133	0,068
-191,446	-200,000	-0,002	0,079
-190,431	492,946	0,030	-0,049
-189,417	-200,000	0,008	0,116
-188,402	-130,676	0,036	-0,003
-187,387	126,848	-0,116	0,106
-186,373	160,615	-0,069	-0,069
-185,358	30,147	-0,094	-0,057
-184,344	-34,364	0,111	-0,043
-183,329	57,526	-0,038	-0,026
-182,315	27,413	-0,109	-0,066
-181,300	26,081	0,123	-0,074
-180,285	800,000	0,011	-0,022
-179,271	310,702	0,048	0,065
-178,256	756,975	-0,013	0,026
-177,242	483,479	-0,042	0,069
-176,227	-6,074	0,100	-0,049
-175,212	-200,000	-0,009	-0,067
-174,198	3,455	0,066	-0,035
-173,183	-86,910	-0,101	-0,022
-172,169	344,170	0,043	0,061
-171,154	-36,772	-0,028	0,011
-170,139	213,552	-0,032	-0,037
-169,125	-200,000	-0,020	0,076
-168,110	154,244	-0,069	0,068
-167,096	35,548	-0,061	-0,039
-166,081	247,825	-0,057	-0,070
-165,066	-200,000	0,026	-0,143
-164,052	-193,604	-0,166	-0,001
-163,037	255,271	0,039	-0,048
-162,023	49,673	0,122	0,082
-161,008	-200,000	0,005	0,054
-159,993	148,281	-0,039	-0,038
-158,979	-115,706	0,149	0,020
-157,964	-86,697	-0,127	-0,028
-156,950	79,936	-0,062	0,048
-155,935	-125,594	0,089	-0,010
-154,920	-139,054	-0,112	-0,009
-153,906	-103,009	-0,118	0,020
-152,891	-200,000	-0,018	-0,070
-151,877	-67,267	-0,140	-0,039
-150,862	-70,009	-0,142	-0,039
-149,847	800,000	-0,011	-0,034
-148,833	-113,979	-0,136	-0,019
-147,818	-40,820	0,125	0,046
-146,804	-171,314	0,203	0,005
-145,789	-200,000	-0,001	0,013
-144,775	-167,921	-0,116	-0,003
-143,760	227,040	0,066	-0,077
-142,745	-200,000	0,022	-0,102
-141,731	-200,000	0,006	-0,098
-140,716	4,627	0,108	0,057
-139,702	108,989	0,065	-0,056
-138,687	151,545	-0,063	0,062
-137,672	-75,930	-0,052	0,013
-136,658	715,248	0,011	-0,021
-135,643	-200,000	0,028	-0,249
-134,629	800,000	0,005	0,017
-133,614	-200,000	0,019	0,118
-132,599	-200,000	0,015	0,081
-131,585	648,914	0,060	0,112
-130,570	800,000	0,042	0,109
-129,556	47,799	-0,079	-0,053
-128,541	222,708	-0,046	0,053
-127,526	800,000	-0,005	0,011
-126,512	560,477	-0,048	0,083
-125,497	-12,731	-0,187	-0,087
-124,483	-61,124	0,066	-0,020
-123,468	-200,000	0,008	0,102
-122,453	14,256	-0,037	-0,021
-121,439	129,692	-0,098	-0,090
-120,424	118,866	-0,028	-0,025
-119,410	-71,502	-0,038	0,010
