DTS Sentinel unit serial number:	SN410029Multiplexer serial number:	ORYXHardware model number:	OX2-SRSoftware version number:	ORYX F/W v4,00 Oryx Data Collector v3.7.2.0data status	okinstallation	B6 Nyhavnadifferential loss correction	single-endedforward channel	channel 2reverse channel	N/Adate	2023/12/10time	07:10:08forward acquisition time	300,00reverse acquisition time	0,00gamma	499,1914k internal	0,3123k external	0,3123temperature offset calibration	1,0000default loss term (dB/km)	0,3820temperature slope calibration	1,0000multiplexer offset coefficient	1,0000multiplexer slope coefficient	1,0000fibre end	0,00T internal ref (°C)	22,62T ext. ref 1 (°C)	6,33T ext. ref 2 (°C)	6,33length (m)	temperature (°C)	Stokes	anti-Stokes-744,400	483,268	-0,096	-0,163
-743,385	-76,421	-0,222	-0,058
-742,371	-20,796	-0,130	-0,059
-741,356	228,626	-0,174	0,212
-740,342	-125,485	0,109	-0,012
-739,327	316,540	-0,070	0,099
-738,312	290,037	0,043	-0,058
-737,298	-31,231	-0,209	0,087
-736,283	188,511	-0,022	0,025
-735,269	-36,812	-0,247	0,098
-734,254	-60,990	0,217	0,068
-733,239	-107,230	-0,483	-0,078
-732,225	23,497	0,081	0,049
-731,210	146,211	-0,118	-0,118
-730,196	800,000	0,069	-0,173
-729,181	317,777	-0,080	-0,113
-728,167	50,339	0,065	-0,046
-727,152	-200,000	0,019	0,079
-726,137	-200,000	0,010	-0,112
-725,123	-200,000	0,035	-0,134
-724,108	26,734	-0,184	-0,115
-723,094	82,613	-0,010	-0,008
-722,079	312,482	-0,068	-0,096
-721,064	-200,000	-0,011	0,082
-720,050	199,267	0,075	0,086
-719,035	-200,000	-0,026	0,132
-718,021	-200,000	0,024	0,082
-717,006	-200,000	-0,013	0,054
-715,991	97,980	-0,069	-0,059
-714,977	291,552	-0,044	0,060
-713,962	597,230	-0,037	0,069
-712,948	412,074	0,025	-0,040
-711,933	-24,776	0,120	-0,053
-710,918	800,000	-0,022	0,065
-709,904	-200,000	0,003	-0,100
-708,889	217,794	-0,108	-0,129
-707,875	400,815	0,072	0,113
-706,860	51,489	-0,124	-0,087
-705,845	77,296	-0,114	-0,090
-704,831	-59,687	-0,080	0,025
-703,816	-60,279	-0,017	0,005
-702,802	-27,049	-0,063	-0,027
-701,787	-35,144	0,044	-0,018
-700,772	-200,000	0,011	0,076
-699,758	-106,174	-0,128	0,021
-698,743	-119,062	-0,033	0,004
-697,729	207,596	-0,021	0,025
-696,714	90,213	0,075	-0,062
-695,699	-200,000	-0,016	-0,073
-694,685	62,979	0,172	0,128
-693,670	-200,000	0,018	-0,127
-692,656	800,000	-0,056	-0,129
-691,641	-200,000	-0,020	-0,075
-690,627	101,628	-0,047	0,040
-689,612	96,790	0,074	-0,063
-688,597	-200,000	-0,005	-0,024
-687,583	98,049	-0,077	-0,066
-686,568	-166,885	-0,148	0,004
-685,554	-71,778	-0,121	-0,033
-684,539	119,431	0,036	-0,033
-683,524	-148,856	0,035	-0,002
-682,510	307,776	0,014	-0,019
-681,495	-179,982	-0,058	-0,001
-680,481	105,560	-0,045	0,039
-679,466	800,000	-0,030	-0,081
-678,451	-188,017	-0,104	-0,001
-677,437	344,276	-0,012	0,018
-676,422	-200,000	-0,009	0,147
-675,408	-41,708	-0,032	-0,012
-674,393	371,839	0,053	0,080
-673,378	-200,000	0,023	0,139
-672,364	-97,783	-0,136	-0,026
-671,349	800,000	0,026	-0,070
-670,335	64,912	0,025	0,019
-669,320	-200,000	0,024	0,082
-668,305	-200,000	-0,043	0,146
-667,291	-20,445	-0,033	0,015
-666,276	631,039	-0,093	-0,175
-665,262	353,712	0,090	-0,133
-664,247	800,000	-0,022	-0,059
-663,232	182,474	-0,082	-0,090
-662,218	359,163	0,040	0,059
-661,203	-29,166	0,071	0,030
-660,189	-200,000	0,024	0,138
-659,174	-200,000	-0,002	-0,067
-658,159	73,389	-0,059	-0,046
-657,145	-200,000	0,026	0,112
-656,130	70,302	-0,112	-0,086
-655,116	-78,600	0,118	-0,030
-654,101	-200,000	-0,004	-0,055
-653,086	-95,540	0,084	0,016
-652,072	33,905	0,130	0,084
-651,057	-145,442	-0,159	0,010
-650,043	-100,912	0,044	-0,008
-649,028	-200,000	-0,009	-0,040
-648,014	110,459	0,121	-0,108
-646,999	-97,252	0,012	0,002
-645,984	-62,768	0,093	-0,029
-644,970	30,323	0,061	-0,039
-643,955	-71,171	-0,078	-0,021
-642,941	-68,339	-0,049	-0,014
-641,926	-107,606	-0,175	-0,028
-640,911	800,000	-0,032	-0,089
-639,897	-200,000	0,028	0,169
-638,882	-200,000	-0,005	-0,073
-637,868	-200,000	-0,008	0,071
-636,853	209,226	0,023	-0,027
-635,838	-200,000	0,004	-0,075
-634,824	800,000	-0,048	0,149
-633,809	-37,698	0,063	-0,025
-632,795	800,000	-0,054	-0,116
-631,780	800,000	-0,016	-0,037
-630,765	-103,635	0,020	0,003
-629,751	-44,592	-0,020	-0,007
-628,736	-68,874	-0,045	-0,013
-627,722	-166,254	-0,085	0,003
-626,707	-200,000	0,005	0,017
-625,692	-28,413	-0,106	-0,045
-624,678	89,321	0,046	0,038
-623,663	43,454	-0,115	-0,078
-622,649	134,110	-0,093	-0,090
-621,634	-200,000	-0,022	-0,096
-620,619	507,641	0,027	-0,046
-619,605	176,996	-0,040	0,043
-618,590	71,503	0,014	-0,011
-617,576	218,443	0,031	-0,037
-616,561	214,497	0,037	0,044
-615,546	-200,000	-0,011	-0,050
-614,532	263,894	-0,061	-0,079
-613,517	-38,697	-0,091	-0,035
-612,503	15,620	0,086	0,050
-611,488	-183,680	-0,148	-0,002
-610,474	-83,319	0,118	-0,028
-609,459	-200,000	-0,002	0,024
-608,444	-126,849	-0,076	0,008
-607,430	-200,000	0,007	-0,166
-606,415	137,793	-0,080	0,077
-605,401	-122,275	0,102	0,012
-604,386	-200,000	-0,008	0,079
-603,371	524,597	-0,073	0,128
-602,357	-200,000	-0,004	-0,083
-601,342	-32,338	0,063	0,026
-600,328	-200,000	-0,000	-0,114
-599,313	624,351	0,056	0,105
-598,298	54,984	-0,101	0,073
-597,284	146,668	-0,074	0,074
-596,269	800,000	-0,097	0,202
-595,255	-50,709	0,108	0,037
-594,240	-16,846	0,092	-0,043
-593,225	112,936	-0,059	-0,053
-592,211	-87,438	-0,019	0,004
-591,196	-77,062	0,104	-0,027
-590,182	-200,000	-0,013	0,049
-589,167	800,000	-0,090	0,216
-588,152	-200,000	0,010	0,056
-587,138	800,000	0,026	0,070
-586,123	15,359	-0,046	0,027
-585,109	219,623	0,022	-0,026
-584,094	-85,324	0,132	0,030
-583,079	712,788	0,023	0,045
-582,065	-77,055	-0,071	0,018
-581,050	-31,281	0,034	-0,014
-580,036	-59,296	-0,097	-0,031
-579,021	-82,037	-0,071	0,017
-578,006	-126,559	-0,057	-0,006
-576,992	-200,000	0,026	0,101
-575,977	-6,371	0,077	0,039
-574,963	-200,000	-0,007	0,066
-573,948	800,000	0,033	0,093
-572,934	-172,071	0,087	-0,002
-571,919	-200,000	0,005	-0,078
-570,904	82,750	-0,104	0,083
-569,890	800,000	0,044	-0,115
-568,875	-138,009	0,070	0,006
-567,861	-69,571	-0,014	0,004
-566,846	-22,336	0,008	0,003
-565,831	-200,000	-0,021	-0,227
-564,817	-45,590	-0,083	0,030
-563,802	-200,000	-0,022	-0,094
-562,788	556,777	0,062	-0,111
-561,773	348,310	-0,014	0,020
-560,758	12,650	-0,096	-0,054
-559,744	-200,000	0,019	0,111
-558,729	-200,000	-0,013	-0,062
-557,715	608,812	-0,047	0,088
-556,700	-41,746	0,037	-0,014
-555,685	-200,000	0,003	-0,017
-554,671	-0,106	-0,154	-0,081
-553,656	50,987	0,005	0,004
-552,642	65,956	0,144	0,108
-551,627	-88,702	-0,131	-0,029
-550,612	-120,358	-0,026	-0,003
-549,598	327,159	-0,031	0,045
-548,583	193,318	-0,083	0,093
-547,569	800,000	-0,042	0,115
-546,554	744,825	-0,020	-0,040
-545,539	800,000	0,024	-0,055
-544,525	-75,270	0,116	0,030
-543,510	-73,660	0,062	0,017
-542,496	410,266	-0,025	-0,039
-541,481	-32,235	0,072	0,030
-540,466	69,514	0,066	-0,050
-539,452	798,306	0,021	-0,043
-538,437	800,000	-0,054	0,140
-537,423	33,635	0,123	-0,079
-536,408	228,768	0,036	-0,043
-535,393	87,513	-0,089	0,073
-534,379	800,000	-0,049	-0,120
-533,364	223,001	-0,025	-0,030
-532,350	-91,146	0,152	0,032
-531,335	9,062	0,016	0,009
-530,321	580,733	-0,027	0,050
-529,306	63,662	0,025	0,018
-528,291	330,163	-0,105	-0,150
-527,277	-200,000	0,003	-0,044
-526,262	-105,221	-0,180	-0,030
-525,248	790,858	-0,027	0,056
-524,233	800,000	-0,054	0,117
-523,218	-200,000	-0,032	0,134
-522,204	323,577	0,066	0,094
-521,189	-200,000	-0,007	0,043
-520,175	196,523	-0,015	-0,017
-519,160	-110,506	-0,099	-0,015
-518,145	-102,377	-0,056	-0,010
-517,131	-4,819	0,115	-0,058
-516,116	45,149	-0,031	0,021
-515,102	-102,399	-0,095	-0,017
-514,087	-138,637	0,028	-0,002
-513,072	406,472	-0,027	-0,042
-512,058	-200,000	-0,017	-0,063
-511,043	501,947	0,007	-0,012
-510,029	800,000	0,013	-0,030
-509,014	415,100	0,066	0,105
-507,999	-200,000	0,014	0,065
-506,985	5,874	-0,069	0,038
-505,970	-170,863	-0,056	-0,001
-504,956	800,000	0,018	0,055
-503,941	92,625	0,084	-0,070
-502,926	331,124	0,059	0,085
-501,912	-92,593	0,081	-0,017
-500,897	351,740	0,113	0,166
-499,883	38,741	-0,102	-0,067
-498,868	-6,611	0,071	-0,036
-497,853	277,048	-0,085	0,112
-496,839	226,490	0,021	-0,025
-495,824	200,237	0,029	0,033
-494,810	-190,234	-0,118	0,001
-493,795	-27,544	-0,039	0,017
-492,781	-200,000	-0,059	-0,208
-491,766	115,722	0,049	0,045
-490,751	-190,889	-0,077	-0,001
-489,737	366,714	-0,053	0,079
-488,722	800,000	0,019	-0,046
-487,708	448,811	-0,007	-0,011
-486,693	-118,952	0,140	0,018
-485,678	232,058	-0,028	-0,034
-484,664	-200,000	0,010	-0,084
-483,649	-46,360	-0,024	-0,009
-482,635	-200,000	0,021	-0,141
-481,620	-177,869	0,094	0,002
-480,605	-77,551	0,113	0,029
-479,591	-200,000	0,008	-0,086
-478,576	86,626	0,034	-0,028
-477,562	363,124	0,085	0,126
-476,547	-200,000	-0,036	-0,157
-475,532	800,000	0,020	-0,048
-474,518	-200,000	0,001	-0,011
-473,503	52,781	0,124	0,087
-472,489	13,610	0,007	-0,004
-471,474	140,797	0,067	0,065
-470,459	-200,000	0,009	-0,075
-469,445	-200,000	-0,023	-0,234
-468,430	-26,648	-0,023	0,010
-467,416	-123,279	0,106	0,012
-466,401	512,840	-0,041	0,070
-465,386	-200,000	0,002	0,051
-464,372	47,903	-0,147	0,101
-463,357	63,387	-0,011	-0,008
-462,343	-126,303	-0,121	-0,013
-461,328	-8,419	-0,103	-0,051
-460,313	-25,827	0,041	-0,018
-459,299	588,749	0,022	-0,039
-458,284	-200,000	0,028	0,142
-457,270	286,125	-0,100	0,134
-456,255	-200,000	-0,048	-0,172
-455,241	-83,071	-0,044	-0,010
-454,226	-87,374	-0,045	0,010
-453,211	-73,708	-0,123	-0,033
-452,197	-115,262	0,089	0,012
-451,182	288,315	0,106	0,141
-450,168	176,149	-0,049	0,052
-449,153	144,980	0,035	0,034
-448,138	800,000	-0,023	-0,060
-447,124	-67,837	0,018	0,005
-446,109	800,000	0,044	-0,125
-445,095	-67,083	0,252	0,073
-444,080	-53,247	0,099	0,033
-443,065	-115,807	-0,054	0,007
-442,051	-134,827	0,078	-0,007
-441,036	-4,382	0,150	-0,076
-440,022	-105,482	0,092	-0,015
-439,007	256,089	0,048	-0,061
-437,992	-200,000	-0,003	0,014
-436,978	378,027	-0,083	0,126
-435,963	340,208	0,072	-0,104
-434,949	478,773	0,053	-0,089
-433,934	800,000	-0,030	0,067
-432,919	-200,000	0,020	0,147
-431,905	205,540	0,095	-0,108
-430,890	40,516	0,103	-0,068
-429,876	-200,000	0,013	0,105
-428,861	-200,000	-0,004	0,019
-427,846	119,362	-0,107	0,098
-426,832	800,000	0,020	0,042
-425,817	408,040	-0,016	-0,025
-424,803	-200,000	-0,008	0,073
-423,788	-200,000	-0,004	-0,045
-422,773	-200,000	0,007	-0,045
-421,759	158,222	-0,090	0,092
-420,744	-111,098	0,096	0,014
-419,730	331,713	-0,054	-0,078
-418,715	-24,429	0,093	-0,040
-417,701	800,000	0,012	-0,039
-416,686	259,079	-0,036	0,045
-415,671	-124,699	0,084	0,009
-414,657	74,043	-0,022	0,017
-413,642	92,970	-0,067	-0,055
-412,628	800,000	-0,011	0,034
-411,613	-200,000	-0,015	-0,056
-410,598	72,790	-0,047	-0,036
-409,584	-200,000	0,007	0,078
-408,569	429,262	0,064	0,103
-407,555	800,000	-0,033	0,088
-406,540	58,675	0,056	0,041
-405,525	22,883	-0,017	-0,010
-404,511	800,000	0,053	-0,117
-403,496	800,000	0,035	-0,086
-402,482	-53,711	0,041	0,014
-401,467	-94,526	0,079	0,016
-400,452	-19,678	0,049	0,022
-399,438	800,000	0,049	-0,110
-398,423	-200,000	0,006	-0,183
-397,409	490,204	0,083	-0,140
-396,394	238,198	0,045	0,055
-395,379	524,945	-0,045	0,077
-394,365	657,047	-0,033	0,062
-393,350	-200,000	0,028	0,101
-392,336	-7,679	0,116	0,058
-391,321	800,000	-0,041	-0,132
-390,306	-21,285	-0,049	-0,022
-389,292	-85,673	0,062	0,014
-388,277	-26,359	0,147	-0,063
-387,263	-200,000	0,005	0,028
-386,248	519,057	0,013	0,023
-385,233	-200,000	0,026	0,083
-384,219	528,419	0,023	0,039
-383,204	-200,000	-0,021	-0,165
-382,190	237,708	-0,107	-0,131
-381,175	-130,296	0,123	-0,012
-380,160	174,681	0,058	-0,061
-379,146	-4,689	0,053	-0,027
-378,131	-92,972	-0,066	0,014
-377,117	-94,416	0,121	0,024
-376,102	464,733	-0,061	-0,101
-375,088	-96,263	-0,088	-0,017
-374,073	214,642	0,025	-0,029
-373,058	-200,000	-0,007	-0,080
-372,044	-67,275	0,175	-0,050
-371,029	316,708	0,031	-0,043
-370,015	66,142	0,004	-0,003
-369,000	-200,000	0,031	0,123
-367,985	-65,607	0,131	0,038
-366,971	-4,920	-0,077	-0,039
-365,956	-200,000	0,007	0,023
-364,942	221,091	0,076	-0,090
-363,927	116,150	0,035	-0,032
-362,912	800,000	0,031	-0,067
-361,898	-85,970	-0,058	0,013
-360,883	-200,000	-0,027	-0,114
-359,869	194,448	0,068	-0,076
-358,854	134,621	0,108	0,103
-357,839	800,000	-0,024	-0,056
-356,825	284,533	-0,067	0,088
-355,810	-200,000	0,003	0,053
-354,796	83,028	-0,095	0,076
-353,781	-44,254	-0,155	0,057
-352,766	-200,000	-0,005	0,021
-351,752	-88,705	-0,042	-0,009
-350,737	-200,000	-0,041	0,214
-349,723	-200,000	0,029	-0,102
-348,708	94,366	-0,084	-0,070
-347,693	145,202	0,041	-0,040
-346,679	-69,663	-0,046	0,013
-345,664	-200,000	0,009	-0,097
-344,650	800,000	-0,054	0,157
-343,635	290,850	-0,088	0,118
-342,620	-161,108	0,036	0,001
-341,606	-115,719	-0,071	-0,010
-340,591	8,789	-0,054	0,030
-339,577	238,856	-0,146	-0,179
-338,562	800,000	-0,041	-0,100
-337,548	111,015	0,082	-0,072
-336,533	800,000	0,042	-0,089
-335,518	-200,000	0,004	0,061
-334,504	364,643	-0,097	0,143
-333,489	71,911	0,071	-0,054
-332,475	7,560	0,019	0,011
-331,460	-157,418	-0,042	0,002
-330,445	-115,263	0,067	-0,009
-329,431	-100,308	0,140	0,025
-328,416	92,172	-0,084	0,069
-327,402	800,000	0,024	-0,054
-326,387	407,166	0,066	0,103
-325,372	-200,000	0,009	-0,167
-324,358	800,000	-0,045	-0,111
-323,343	800,000	-0,036	-0,104
-322,329	800,000	0,027	-0,058
-321,314	13,758	0,101	-0,057
-320,299	251,689	0,064	-0,080
-319,285	2,468	-0,144	0,076
-318,270	-43,289	-0,066	-0,024
-317,256	-67,921	-0,101	-0,029
-316,241	-139,042	0,035	0,003
-315,226	-200,000	-0,011	-0,056
-314,212	-77,511	0,153	-0,039
-313,197	-200,000	-0,004	0,112
-312,183	-77,652	0,060	-0,015
-311,168	698,319	0,069	0,133
-310,153	-155,021	-0,038	0,002
-309,139	13,169	0,078	-0,044
-308,124	-200,000	0,026	0,218
-307,110	121,552	0,154	0,141
-306,095	289,404	0,118	0,157
-305,080	-26,745	-0,039	-0,017
-304,066	-200,000	0,005	0,029
-303,051	67,578	-0,077	0,057
-302,037	-91,122	-0,021	-0,004
-301,022	-14,637	-0,023	0,011
-300,008	311,341	-0,013	0,018
-298,993	32,509	0,050	-0,031
-297,978	-15,739	0,205	0,095
-296,964	348,572	0,054	-0,078
-295,949	-200,000	-0,014	-0,061
-294,935	-33,358	0,028	0,011
-293,920	-200,000	0,004	-0,076
-292,905	-200,000	-0,012	0,100
-291,891	91,766	0,059	0,048
-290,876	-150,453	-0,104	0,006
-289,862	140,755	0,034	-0,033
-288,847	337,976	-0,013	-0,019
-287,832	-200,000	0,017	-0,070
-286,818	-138,274	-0,092	0,007
-285,803	800,000	0,042	0,088
-284,789	283,187	0,040	0,052
-283,774	-200,000	-0,003	0,022
-282,759	-37,173	-0,033	0,013
-281,745	141,267	-0,042	0,040
-280,730	17,797	-0,015	0,009
-279,716	-91,397	-0,116	0,024
-278,701	185,845	0,043	-0,047
-277,686	-200,000	-0,017	0,119
-276,672	-200,000	0,012	-0,066
-275,657	212,074	-0,052	0,060
-274,643	57,516	-0,062	-0,044
-273,628	-153,913	-0,122	-0,006
-272,613	-200,000	-0,026	-0,145
-271,599	392,823	0,023	-0,035
-270,584	123,696	0,067	0,061
-269,570	-200,000	0,028	0,102
-268,555	-56,645	-0,161	0,052
-267,540	-93,598	-0,076	-0,015
-266,526	784,600	-0,044	0,088
-265,511	800,000	-0,032	0,080
-264,497	-200,000	-0,008	-0,064
-263,482	-200,000	0,043	0,166
-262,467	-200,000	-0,001	0,087
-261,453	-200,000	-0,007	-0,031
-260,438	64,394	-0,119	-0,087
-259,424	800,000	0,070	-0,210
-258,409	303,732	-0,043	0,059
-257,395	23,363	0,093	0,056
-256,380	346,680	0,108	0,156
-255,365	-58,900	0,172	-0,054
-254,351	236,069	-0,022	0,026
-253,336	464,644	0,034	-0,056
-252,322	172,954	0,057	0,060
-251,307	-41,844	-0,093	-0,035
-250,292	61,860	0,039	-0,029
-249,278	-47,574	0,074	-0,026
-248,263	800,000	0,027	-0,066
-247,249	88,495	-0,062	0,050
-246,234	-200,000	0,019	0,098
-245,219	198,028	-0,051	-0,057
-244,205	797,358	-0,079	-0,159
-243,190	-100,329	-0,068	-0,012
-242,176	-104,356	0,015	0,002
-241,161	800,000	-0,025	0,070
-240,146	-91,534	0,078	0,016
-239,132	800,000	0,040	-0,088
-238,117	107,615	-0,100	-0,087
-237,103	800,000	0,056	-0,143
-236,088	115,208	0,075	-0,067
-235,073	43,331	-0,028	0,019
-234,059	800,000	-0,021	-0,061
-233,044	49,009	-0,056	0,039
-232,030	-10,339	0,030	0,014
-231,015	271,981	-0,042	-0,054
-230,000	-88,716	0,109	0,024
-228,986	182,686	0,143	-0,155
-227,971	800,000	0,033	0,086
-226,957	800,000	-0,019	-0,047
-225,942	445,287	-0,032	0,051
-224,927	800,000	-0,047	-0,132
-223,913	641,829	-0,068	-0,126
-222,898	-200,000	0,032	-0,114
-221,884	25,440	-0,061	0,037
-220,869	270,451	0,064	0,082
-219,855	800,000	-0,020	-0,044
-218,840	800,000	0,025	0,080
-217,825	30,731	0,056	-0,035
-216,811	-150,269	-0,063	-0,003
-215,796	152,712	-0,105	-0,105
-214,782	27,641	0,117	0,072
-213,767	800,000	0,019	0,056
-212,752	145,602	-0,065	0,064
-211,738	800,000	0,006	-0,017
-210,723	76,723	-0,051	-0,039
-209,709	-107,261	-0,075	0,012
-208,694	-129,357	-0,056	0,006
-207,679	-200,000	-0,005	0,036
-206,665	32,100	-0,089	-0,056
-205,650	800,000	-0,022	-0,055
-204,636	33,237	0,074	0,047
-203,621	-200,000	-0,013	-0,057
-202,606	-37,381	-0,080	-0,031
-201,592	-200,000	-0,015	-0,140
-200,577	-116,531	0,051	-0,007
-199,563	800,000	-0,038	-0,097
-198,548	-51,012	0,154	-0,052
-197,533	544,742	0,005	-0,009
-196,519	-7,870	-0,045	-0,022
-195,504	399,013	0,075	0,114
-194,490	-68,324	-0,103	0,029
-193,475	800,000	-0,012	0,027
-192,460	34,011	-0,080	0,051
-191,446	55,220	0,082	0,058
-190,431	-12,977	0,123	-0,058
-189,417	800,000	0,035	-0,098
-188,402	126,540	0,039	0,036
-187,387	155,504	0,033	0,033
-186,373	-4,965	-0,103	-0,052
-185,358	-38,017	0,073	-0,028
-184,344	540,777	-0,028	0,049
-183,329	-87,229	-0,171	0,038
-182,315	-200,000	-0,002	0,069
-181,300	106,834	0,098	-0,085
-180,285	800,000	-0,022	0,051
-179,271	800,000	-0,057	0,144
-178,256	-15,144	0,077	-0,036
-177,242	-200,000	-0,006	0,147
-176,227	438,750	-0,059	0,094
-175,212	-200,000	-0,031	0,144
-174,198	-200,000	-0,004	-0,060
-173,183	-54,614	-0,158	0,052
-172,169	-35,869	-0,097	0,038
-171,154	12,677	0,090	-0,051
-170,139	112,340	-0,021	0,018
-169,125	800,000	-0,033	0,090
-168,110	-200,000	0,028	-0,102
-167,096	297,540	-0,034	-0,046
-166,081	8,242	-0,056	0,031
-165,066	54,983	-0,063	0,044
-164,052	158,147	-0,068	0,069
-163,037	-56,361	-0,070	-0,023
-162,023	-200,000	-0,022	0,107
-161,008	-200,000	0,012	0,167
-159,993	-34,437	-0,126	0,050
-158,979	-61,530	-0,077	-0,023
-157,964	-150,059	0,026	0,001
-156,950	-96,361	-0,139	-0,027
-155,935	7,885	0,064	-0,035
-154,920	120,376	0,046	-0,042
-153,906	-200,000	-0,017	0,084
-152,891	-37,429	0,157	-0,061
-151,877	0,976	-0,052	0,027
-150,862	73,862	0,065	-0,049
-149,847	4,108	-0,093	0,049
-148,833	-200,000	0,050	-0,198
-147,818	-72,910	-0,005	-0,001
-146,804	24,900	0,016	0,009
-145,789	-200,000	-0,022	0,110
-144,775	-119,319	0,095	0,012
-143,760	-74,651	-0,097	-0,025
-142,745	47,980	-0,068	-0,046
-141,731	-4,757	0,150	-0,075
-140,716	-200,000	0,007	-0,021
-139,702	-63,729	0,012	0,004
-138,687	403,708	0,070	0,108
-137,672	72,689	-0,060	0,046
-136,658	800,000	0,027	-0,059
-135,643	-60,616	0,112	-0,034
-134,629	147,101	-0,019	-0,018
-133,614	-200,000	-0,005	0,085
-132,599	-200,000	-0,039	-0,155
-131,585	430,905	-0,047	0,074
-130,570	800,000	-0,017	-0,046
-129,556	190,995	-0,093	0,102
-128,541	78,741	-0,138	0,107
-127,526	119,447	-0,026	0,024
-126,512	800,000	0,022	-0,060
-125,497	-18,016	-0,138	-0,063
-124,483	166,447	0,042	0,044
-123,468	409,334	0,065	-0,101
-122,453	265,573	-0,039	-0,050
-121,439	-160,872	0,165	-0,006
-120,424	-197,528	-0,097	-0,000
-119,410	-149,499	0,065	-0,004
