DTS Sentinel unit serial number:	SN410029Multiplexer serial number:	ORYXHardware model number:	OX2-SRSoftware version number:	ORYX F/W v4,00 Oryx Data Collector v3.7.2.0data status	okinstallation	B6 Nyhavnadifferential loss correction	single-endedforward channel	channel 2reverse channel	N/Adate	2023/12/07time	16:25:08forward acquisition time	300,00reverse acquisition time	0,00gamma	499,1914k internal	0,3164k external	0,3164temperature offset calibration	1,0000default loss term (dB/km)	0,3820temperature slope calibration	1,0000multiplexer offset coefficient	1,0000multiplexer slope coefficient	1,0000fibre end	0,00T internal ref (°C)	14,52T ext. ref 1 (°C)	-2,13T ext. ref 2 (°C)	-2,13length (m)	temperature (°C)	Stokes	anti-Stokes-744,400	-127,757	0,135	-0,014
-743,385	-107,626	-0,324	-0,052
-742,371	-191,899	0,223	0,002
-741,356	-46,113	-0,168	0,061
-740,342	53,535	0,097	0,069
-739,327	-120,023	-0,303	0,038
-738,312	-200,000	-0,011	0,052
-737,298	-87,452	-0,298	-0,066
-736,283	-59,648	0,158	0,050
-735,269	-99,938	-0,350	0,064
-734,254	-116,965	0,136	0,018
-733,239	-36,213	-0,561	-0,222
-732,225	-59,427	0,245	0,077
-731,210	-58,569	-0,114	0,036
-730,196	800,000	0,018	0,038
-729,181	-200,000	-0,005	-0,050
-728,167	339,867	-0,072	-0,103
-727,152	2,102	0,102	0,054
-726,137	-200,000	0,019	-0,077
-725,123	-46,076	-0,035	-0,013
-724,108	800,000	-0,066	-0,153
-723,094	800,000	0,024	-0,070
-722,079	-200,000	0,007	-0,066
-721,064	800,000	0,041	-0,098
-720,050	-154,709	-0,068	0,003
-719,035	771,296	-0,074	-0,149
-718,021	336,210	-0,028	-0,040
-717,006	-130,229	-0,107	-0,011
-715,991	10,727	-0,113	-0,063
-714,977	-41,223	-0,039	-0,015
-713,962	169,655	-0,074	-0,078
-712,948	90,824	0,157	-0,130
-711,933	233,722	-0,037	-0,045
-710,918	54,732	-0,148	0,105
-709,904	800,000	-0,004	-0,011
-708,889	797,387	-0,078	-0,159
-707,875	-200,000	-0,021	-0,111
-706,860	-200,000	-0,021	-0,086
-705,845	-197,900	-0,016	0,000
-704,831	-200,000	0,002	0,205
-703,816	800,000	-0,078	-0,172
-702,802	92,950	0,026	-0,022
-701,787	318,237	-0,072	-0,100
-700,772	251,001	-0,047	-0,058
-699,758	53,114	-0,028	-0,020
-698,743	203,976	0,118	0,134
-697,729	109,615	0,045	-0,040
-696,714	800,000	-0,015	0,033
-695,699	111,557	0,047	0,042
-694,685	-0,077	-0,110	-0,057
-693,670	-30,631	-0,102	-0,042
-692,656	-139,752	0,098	-0,008
-691,641	800,000	-0,032	-0,075
-690,627	-200,000	0,019	0,115
-689,612	59,645	-0,119	-0,086
-688,597	198,136	-0,066	-0,074
-687,583	265,090	-0,076	-0,098
-686,568	116,272	-0,049	-0,044
-685,554	-45,616	0,015	-0,005
-684,539	-200,000	0,041	0,205
-683,524	96,829	-0,029	0,024
-682,510	-106,769	-0,051	-0,008
-681,495	-34,232	-0,097	0,039
-680,481	800,000	0,036	-0,116
-679,466	187,519	-0,087	-0,096
-678,451	39,046	0,049	-0,032
-677,437	66,824	0,082	-0,061
-676,422	771,375	-0,007	-0,014
-675,408	-120,586	-0,100	-0,012
-674,393	27,355	-0,097	-0,059
-673,378	-120,025	0,078	-0,010
-672,364	800,000	-0,046	-0,102
-671,349	172,423	0,036	-0,038
-670,335	357,497	-0,075	0,111
-669,320	-44,057	-0,054	-0,020
-668,305	-99,560	0,123	-0,022
-667,291	-200,000	-0,008	-0,108
-666,276	97,237	-0,108	0,091
-665,262	-45,865	-0,069	-0,025
-664,247	-200,000	-0,004	0,027
-663,232	158,653	0,061	0,062
-662,218	-200,000	0,004	0,056
-661,203	262,995	0,086	0,110
-660,189	138,479	-0,031	0,030
-659,174	-200,000	-0,008	-0,096
-658,159	596,416	-0,073	-0,132
-657,145	800,000	-0,029	-0,069
-656,130	-37,352	0,123	0,048
-655,116	68,358	0,039	-0,029
-654,101	-200,000	-0,015	0,141
-653,086	-89,231	-0,080	-0,017
-652,072	-112,549	0,064	0,009
-651,057	-44,193	-0,143	-0,052
-650,043	-60,722	0,137	-0,042
-649,028	8,180	0,011	0,006
-648,014	282,730	0,065	-0,086
-646,999	-53,909	0,040	0,013
-645,984	-138,061	0,060	-0,005
-644,970	-69,900	-0,039	-0,011
-643,955	-200,000	0,029	-0,126
-642,941	-88,306	-0,124	-0,027
-641,926	216,068	0,087	-0,101
-640,911	268,235	-0,029	-0,037
-639,897	-200,000	-0,013	0,073
-638,882	71,350	0,041	-0,031
-637,868	-129,937	-0,153	0,015
-636,853	-200,000	-0,005	-0,064
-635,838	800,000	-0,068	-0,151
-634,824	800,000	-0,038	0,112
-633,809	74,631	-0,130	-0,100
-632,795	-40,030	0,084	0,032
-631,780	-106,822	0,111	-0,018
-630,765	224,080	-0,152	-0,180
-629,751	-200,000	-0,009	-0,098
-628,736	139,860	-0,066	-0,063
-627,722	115,667	0,056	0,050
-626,707	167,927	-0,091	-0,095
-625,692	96,417	0,032	0,027
-624,678	-16,022	-0,127	-0,059
-623,663	-113,767	-0,190	0,027
-622,649	-16,779	0,058	0,027
-621,634	-200,000	0,004	-0,050
-620,619	-16,570	-0,116	0,054
-619,605	8,707	-0,104	0,057
-618,590	800,000	-0,017	-0,043
-617,576	-98,307	0,130	-0,024
-616,561	168,534	-0,135	-0,141
-615,546	318,780	-0,071	-0,099
-614,532	800,000	0,054	0,132
-613,517	-200,000	0,009	0,044
-612,503	16,537	-0,067	0,039
-611,488	-93,654	-0,131	-0,026
-610,474	243,603	0,019	-0,024
-609,459	-142,184	0,039	0,003
-608,444	157,506	-0,071	-0,072
-607,430	81,791	0,055	0,044
-606,415	-200,000	0,004	-0,051
-605,401	-129,950	0,147	0,015
-604,386	800,000	-0,046	0,105
-603,371	213,241	-0,051	-0,059
-602,357	-94,430	0,074	-0,015
-601,342	-200,000	-0,017	-0,055
-600,328	800,000	0,056	-0,122
-599,313	35,993	-0,056	-0,036
-598,298	24,819	-0,139	0,084
-597,284	381,326	-0,044	0,066
-596,269	-127,849	-0,130	-0,014
-595,255	29,662	0,082	-0,051
-594,240	582,742	-0,033	-0,059
-593,225	569,705	-0,084	-0,150
-592,211	58,054	0,039	0,028
-591,196	49,973	-0,128	0,088
-590,182	-200,000	0,014	-0,046
-589,167	-117,130	-0,066	-0,009
-588,152	400,064	-0,096	0,148
-587,138	-84,913	-0,063	-0,014
-586,123	100,256	-0,134	-0,114
-585,109	151,527	0,040	0,040
-584,094	340,722	0,044	-0,063
-583,079	-200,000	-0,006	0,052
-582,065	800,000	-0,027	-0,065
-581,050	34,466	-0,045	-0,028
-580,036	60,520	0,053	-0,039
-579,021	800,000	0,009	-0,023
-578,006	27,160	-0,082	-0,050
-576,992	-182,650	-0,051	0,001
-575,977	-72,000	0,071	-0,019
-574,963	113,279	0,046	0,041
-573,948	800,000	0,072	0,194
-572,934	-71,427	0,090	-0,024
-571,919	-200,000	0,019	0,072
-570,904	50,446	0,099	-0,068
-569,890	-200,000	0,023	-0,153
-568,875	81,113	-0,043	0,034
-567,861	-113,186	0,105	-0,015
-566,846	-168,089	0,178	-0,005
-565,831	76,549	0,039	-0,030
-564,817	387,251	0,137	0,208
-563,802	-200,000	-0,018	0,085
-562,788	-120,845	0,062	-0,008
-561,773	462,419	-0,046	-0,075
-560,758	-200,000	0,011	-0,112
-559,744	126,043	-0,034	0,031
-558,729	463,114	0,058	0,095
-557,715	24,826	0,089	0,054
-556,700	800,000	0,037	-0,098
-555,685	210,617	-0,080	0,092
-554,671	451,820	-0,032	-0,052
-553,656	800,000	-0,019	0,049
-552,642	160,404	-0,063	0,064
-551,627	56,127	0,070	-0,050
-550,612	-200,000	0,032	-0,114
-549,598	-200,000	0,012	-0,042
-548,583	313,453	0,105	-0,144
-547,569	-174,209	0,092	-0,002
-546,554	108,002	0,026	-0,023
-545,539	-104,616	-0,073	-0,012
-544,525	364,825	-0,042	-0,062
-543,510	709,177	-0,019	0,036
-542,496	-200,000	-0,007	-0,040
-541,481	665,298	-0,043	-0,081
-540,466	91,006	-0,028	0,023
-539,452	-8,156	0,066	-0,032
-538,437	220,262	-0,053	0,062
-537,423	102,030	-0,004	-0,004
-536,408	-139,702	-0,176	-0,013
-535,393	-133,908	0,018	-0,002
-534,379	540,178	0,047	-0,082
-533,364	163,578	0,048	-0,049
-532,350	-200,000	-0,005	0,095
-531,335	38,013	0,063	0,041
-530,321	800,000	0,045	-0,098
-529,306	97,329	0,054	-0,045
-528,291	-64,051	-0,051	-0,015
-527,277	-200,000	0,027	-0,122
-526,262	-200,000	-0,019	-0,128
-525,248	-97,212	0,204	0,038
-524,233	-200,000	0,005	0,079
-523,218	178,091	0,056	-0,060
-522,204	800,000	0,032	-0,082
-521,189	-200,000	-0,008	-0,028
-520,175	-156,194	-0,046	0,002
-519,160	800,000	-0,022	-0,054
-518,145	268,054	0,077	-0,099
-517,131	-200,000	-0,004	-0,054
-516,116	-151,585	0,155	0,008
-515,102	-200,000	0,005	-0,058
-514,087	-78,870	-0,080	0,020
-513,072	-77,441	-0,068	0,017
-512,058	32,201	-0,131	-0,082
-511,043	59,298	0,073	0,053
-510,029	344,304	-0,025	0,036
-509,014	8,555	0,078	0,043
-507,999	298,953	-0,015	0,020
-506,985	-200,000	0,011	-0,169
-505,970	800,000	-0,030	-0,073
-504,956	-200,000	0,019	0,128
-503,941	339,392	0,058	-0,082
-502,926	-161,905	0,130	-0,005
-501,912	462,119	0,045	0,074
-500,897	280,614	0,078	0,102
-499,883	800,000	-0,010	0,031
-498,868	-200,000	0,005	-0,159
-497,853	800,000	-0,018	-0,043
-496,839	27,805	0,073	0,044
-495,824	800,000	0,030	0,078
-494,810	-21,662	-0,026	-0,012
-493,795	-200,000	0,017	0,072
-492,781	-200,000	0,001	0,124
-491,766	-200,000	0,008	0,078
-490,751	-120,675	-0,032	-0,004
-489,737	-200,000	0,027	-0,199
-488,722	-9,861	-0,045	-0,022
-487,708	-200,000	-0,002	0,047
-486,693	-200,000	-0,005	0,100
-485,678	646,117	-0,056	0,105
-484,664	-59,798	0,087	-0,027
-483,649	800,000	-0,053	-0,126
-482,635	-13,749	-0,086	0,040
-481,620	-200,000	0,013	0,112
-480,605	-140,783	-0,053	0,004
-479,591	-200,000	0,034	0,125
-478,576	-76,627	0,076	0,019
-477,562	-200,000	0,001	-0,071
-476,547	240,212	0,061	-0,074
-475,532	-17,721	-0,151	-0,069
-474,518	283,055	0,066	0,086
-473,503	-84,083	0,102	-0,023
-472,489	283,443	-0,100	0,131
-471,474	800,000	0,052	0,114
-470,459	248,375	0,011	0,013
-469,445	-200,000	-0,030	0,104
-468,430	13,327	0,063	-0,036
-467,416	193,408	-0,057	0,063
-466,401	-200,000	-0,010	0,098
-465,386	-127,721	0,112	0,012
-464,372	100,906	0,081	-0,068
-463,357	128,220	0,059	0,055
-462,343	582,088	-0,098	-0,176
-461,328	584,352	0,008	0,014
-460,313	-94,333	0,128	0,025
-459,299	533,974	0,067	0,116
-458,284	163,447	0,018	-0,019
-457,270	-200,000	-0,038	0,151
-456,255	54,777	-0,038	0,027
-455,241	800,000	-0,070	0,158
-454,226	128,396	0,029	-0,027
-453,211	-93,094	0,060	0,012
-452,197	-200,000	-0,053	0,245
-451,182	-200,000	-0,040	0,136
-450,168	-33,905	-0,079	0,032
-449,153	-98,635	-0,126	0,023
-448,138	-1,961	0,155	-0,079
-447,124	669,416	-0,024	-0,046
-446,109	-21,584	0,067	-0,029
-445,095	-200,000	-0,034	0,260
-444,080	165,350	0,124	0,128
-443,065	22,760	0,070	0,041
-442,051	192,741	0,026	-0,029
-441,036	800,000	0,049	-0,128
-440,022	433,466	-0,074	-0,117
-439,007	-13,385	-0,122	-0,057
-437,992	-53,917	0,067	0,022
-436,978	-39,253	0,055	0,021
-435,963	-107,463	0,089	-0,014
-434,949	119,329	-0,024	0,022
-433,934	-69,644	-0,068	0,019
-432,919	-200,000	-0,016	-0,074
-431,905	-1,988	0,130	0,066
-430,890	-50,006	-0,023	-0,008
-429,876	800,000	-0,057	-0,123
-428,861	8,323	-0,008	0,004
-427,846	-200,000	0,016	0,085
-426,832	24,233	-0,141	0,084
-425,817	388,805	-0,085	-0,128
-424,803	-58,389	0,068	-0,021
-423,788	122,264	-0,038	-0,035
-422,773	-200,000	-0,029	-0,135
-421,759	-200,000	-0,003	0,045
-420,744	-200,000	0,011	0,098
-419,730	606,035	-0,038	0,069
-418,715	487,625	-0,070	-0,116
-417,701	5,412	0,054	0,029
-416,686	67,973	-0,058	0,043
-415,671	-69,277	0,066	-0,018
-414,657	-139,647	0,098	0,007
-413,642	319,711	-0,095	-0,131
-412,628	-75,177	0,071	0,018
-411,613	800,000	-0,008	-0,023
-410,598	11,746	0,079	-0,044
-409,584	216,790	-0,073	0,085
-408,569	41,093	-0,100	0,066
-407,555	-59,488	0,148	-0,046
-406,540	-200,000	-0,016	0,097
-405,525	243,330	-0,099	-0,121
-404,511	236,461	-0,106	-0,128
-403,496	-200,000	0,004	-0,033
-402,482	-40,012	0,108	0,041
-401,467	57,442	-0,017	0,012
-400,452	-120,917	-0,280	0,034
-399,438	-200,000	0,017	0,087
-398,423	130,600	-0,100	-0,093
-397,409	313,568	0,080	0,110
-396,394	-200,000	-0,001	-0,090
-395,379	-49,587	0,110	-0,038
-394,365	13,120	-0,159	0,089
-393,350	-157,888	0,140	-0,006
-392,336	95,535	-0,061	-0,050
-391,321	-160,121	0,043	0,002
-390,306	800,000	-0,024	-0,049
-389,292	-15,037	-0,130	0,060
-388,277	469,740	-0,037	0,060
-387,263	-91,939	0,104	-0,021
-386,248	-70,134	-0,010	0,003
-385,233	-200,000	-0,011	-0,075
-384,219	3,051	-0,054	0,028
-383,204	214,058	0,050	0,057
-382,190	-200,000	-0,009	-0,137
-381,175	800,000	0,049	0,100
-380,160	82,391	0,069	0,055
-379,146	103,297	-0,126	0,107
-378,131	-38,838	0,094	0,036
-377,117	-34,550	-0,095	-0,038
-376,102	531,425	-0,043	-0,075
-375,088	-200,000	0,028	-0,093
-374,073	-200,000	-0,008	0,088
-373,058	-200,000	0,024	0,090
-372,044	385,781	0,057	0,085
-371,029	-200,000	0,017	0,069
-370,015	-200,000	-0,016	0,087
-369,000	-184,653	-0,146	0,002
-367,985	-200,000	0,020	-0,112
-366,971	-200,000	0,010	0,055
-365,956	-148,817	0,111	0,006
-364,942	455,788	-0,055	0,088
-363,927	-37,421	0,093	0,036
-362,912	-200,000	0,024	0,077
-361,898	-51,553	-0,135	0,046
-360,883	-200,000	0,008	-0,049
-359,869	48,089	0,107	0,073
-358,854	77,537	-0,017	0,013
-357,839	800,000	0,032	0,076
-356,825	-200,000	-0,017	0,101
-355,810	-200,000	0,004	0,091
-354,796	696,425	-0,016	-0,031
-353,781	326,405	-0,054	0,075
-352,766	-126,826	0,052	-0,005
-351,752	-43,268	0,183	0,067
-350,737	-3,618	-0,143	0,072
-349,723	-200,000	-0,006	0,087
-348,708	552,514	0,116	0,202
-347,693	-69,396	0,045	0,012
-346,679	800,000	0,017	-0,047
-345,664	-56,497	-0,082	-0,026
-344,650	800,000	-0,045	-0,123
-343,635	226,788	0,123	-0,144
-342,620	-200,000	-0,021	0,119
-341,606	-135,697	0,047	0,004
-340,591	-10,370	-0,140	0,067
-339,577	-200,000	-0,003	-0,065
-338,562	-13,422	0,080	-0,037
-337,548	301,802	0,092	-0,124
-336,533	-33,369	-0,082	-0,033
-335,518	-4,638	-0,085	-0,042
-334,504	311,973	-0,027	0,036
-333,489	92,680	-0,129	0,106
-332,475	800,000	-0,021	-0,048
-331,460	-200,000	0,002	-0,042
-330,445	800,000	0,027	-0,083
-329,431	-103,141	0,081	0,014
-328,416	31,103	0,137	0,085
-327,402	143,510	0,111	0,107
-326,387	-159,161	-0,079	0,003
-325,372	86,048	0,064	-0,051
-324,358	-200,000	-0,010	-0,108
-323,343	-200,000	0,004	-0,148
-322,329	74,264	-0,048	-0,037
-321,314	246,037	0,077	0,094
-320,299	-83,950	0,013	-0,003
-319,285	800,000	-0,020	0,056
-318,270	-57,893	-0,081	-0,025
-317,256	-200,000	0,003	-0,095
-316,241	46,784	0,038	-0,026
-315,226	10,442	-0,054	0,030
-314,212	-143,610	0,125	-0,008
-313,197	68,289	-0,043	-0,032
-312,183	115,530	0,036	-0,032
-311,168	384,220	-0,095	-0,142
-310,153	-185,773	0,096	0,001
-309,139	-200,000	-0,013	-0,055
-308,124	-84,382	0,150	-0,034
-307,110	-91,094	-0,037	0,008
-306,095	-200,000	0,007	-0,030
-305,080	72,628	0,107	0,081
-304,066	-200,000	-0,001	0,069
-303,051	317,664	0,043	0,059
-302,037	128,899	-0,057	0,053
-301,022	-65,375	0,079	-0,023
-300,008	53,412	0,046	0,032
-298,993	-200,000	0,015	0,066
-297,978	-200,000	-0,025	0,248
-296,964	621,430	0,022	0,040
-295,949	-200,000	-0,029	0,094
-294,935	-14,603	0,041	0,019
-293,920	-61,901	-0,106	-0,032
-292,905	-200,000	0,025	-0,150
-291,891	800,000	0,056	0,126
-290,876	-200,000	0,016	0,056
-289,862	158,529	-0,056	-0,056
-288,847	113,098	0,072	-0,063
-287,832	-200,000	0,016	-0,069
-286,818	-16,861	0,116	-0,053
-285,803	361,963	-0,071	0,104
-284,789	-200,000	0,010	-0,101
-283,774	212,159	0,064	0,073
-282,759	-84,085	0,094	-0,021
-281,745	-193,927	-0,122	-0,001
-280,730	-200,000	-0,010	0,064
-279,716	-200,000	0,008	0,039
-278,701	74,180	0,038	0,029
-277,686	-13,427	-0,043	0,020
-276,672	30,531	-0,035	-0,021
-275,657	-200,000	0,005	-0,057
-274,643	157,540	-0,057	0,057
-273,628	54,990	-0,083	-0,058
-272,613	-200,000	-0,045	-0,187
-271,599	-43,677	0,027	0,010
-270,584	231,206	0,088	0,104
-269,570	54,182	0,133	0,092
-268,555	-139,784	-0,090	0,007
-267,540	-40,723	0,073	-0,027
-266,526	-200,000	0,012	0,059
-265,511	153,601	-0,033	0,033
-264,497	330,970	0,076	0,107
-263,482	-200,000	0,004	0,018
-262,467	8,524	0,120	0,065
-261,453	-101,682	-0,027	-0,005
-260,438	-109,794	-0,048	-0,007
-259,424	-200,000	-0,028	0,092
-258,409	-6,564	-0,102	-0,050
-257,395	497,377	0,042	-0,071
-256,380	-200,000	-0,007	0,061
-255,365	-33,701	-0,041	0,016
-254,351	-190,692	-0,074	0,001
-253,336	-200,000	-0,008	0,120
-252,322	571,424	-0,119	-0,210
-251,307	-200,000	-0,003	-0,091
-250,292	-200,000	0,005	0,145
-249,278	593,425	-0,052	-0,093
-248,263	16,671	0,123	0,070
-247,249	271,780	-0,064	0,082
-246,234	214,953	0,083	0,095
-245,219	800,000	0,042	-0,091
-244,205	508,990	0,051	-0,085
-243,190	-113,693	0,208	-0,029
-242,176	138,046	-0,035	0,033
-241,161	-89,794	0,094	0,020
-240,146	47,858	-0,164	-0,110
-239,132	416,153	0,029	-0,045
-238,117	312,198	0,045	-0,061
-237,103	800,000	0,029	-0,089
-236,088	-109,910	-0,098	0,015
-235,073	190,226	-0,091	0,098
-234,059	322,563	-0,128	-0,176
-233,044	-4,279	0,069	-0,035
-232,030	-200,000	0,001	0,068
-231,015	-41,520	-0,123	0,045
-230,000	800,000	0,014	0,042
-228,986	-93,710	-0,057	0,011
-227,971	-10,559	-0,045	0,022
-226,957	-58,655	0,059	0,018
-225,942	-80,736	-0,113	-0,027
-224,927	-116,344	-0,091	-0,012
-223,913	-75,804	-0,108	0,027
-222,898	-101,677	-0,191	-0,033
-221,884	790,867	0,032	0,064
-220,869	-33,707	0,052	0,020
-219,855	-137,428	0,128	0,010
-218,840	-94,907	0,061	-0,012
-217,825	-200,000	0,017	0,062
-216,811	46,828	-0,087	-0,058
-215,796	362,578	-0,102	-0,148
-214,782	217,042	0,073	-0,084
-213,767	-109,583	-0,050	-0,008
-212,752	800,000	-0,022	0,054
-211,738	61,466	0,071	0,051
-210,723	218,940	0,008	0,009
-209,709	-34,936	0,028	0,011
-208,694	-65,712	-0,138	-0,040
-207,679	105,383	-0,145	-0,124
-206,665	800,000	0,077	0,174
-205,650	133,060	0,033	0,031
-204,636	283,146	-0,076	-0,098
-203,621	27,274	-0,049	0,029
-202,606	-114,893	-0,113	-0,015
-201,592	-200,000	-0,005	-0,025
-200,577	293,360	-0,058	-0,076
-199,563	800,000	0,046	0,097
-198,548	-200,000	-0,040	0,180
-197,533	19,956	-0,084	0,049
-196,519	27,689	0,078	0,047
-195,504	-200,000	-0,024	-0,104
-194,490	539,889	-0,024	0,041
-193,475	-200,000	-0,013	-0,046
-192,460	-141,597	-0,107	-0,008
-191,446	-50,406	0,128	0,043
-190,431	9,478	-0,099	-0,054
-189,417	-200,000	0,005	-0,031
-188,402	203,159	0,031	-0,035
-187,387	-118,601	-0,081	-0,010
-186,373	110,145	-0,037	0,032
-185,358	-161,275	0,071	0,003
-184,344	50,222	0,006	0,004
-183,329	-79,974	0,125	0,030
-182,315	62,173	0,050	-0,036
-181,300	-200,000	0,018	-0,104
-180,285	93,987	-0,045	-0,037
-179,271	-143,058	0,118	-0,008
-178,256	660,298	-0,054	-0,101
-177,242	-200,000	0,010	0,053
-176,227	800,000	-0,030	0,085
-175,212	-200,000	0,023	0,093
-174,198	56,555	0,045	0,031
-173,183	-30,249	0,106	0,043
-172,169	-53,457	0,091	-0,030
-171,154	-103,436	-0,046	-0,008
-170,139	196,018	0,082	-0,090
-169,125	114,751	0,016	-0,014
-168,110	-156,940	0,034	-0,001
-167,096	-155,999	-0,123	0,006
-166,081	800,000	0,029	-0,065
-165,066	-21,416	-0,074	-0,032
-164,052	-200,000	-0,018	-0,136
-163,037	161,391	-0,039	0,039
-162,023	89,043	0,058	-0,046
-161,008	5,037	0,087	0,046
-159,993	126,265	0,054	0,049
-158,979	-200,000	0,004	0,109
-157,964	-200,000	0,012	-0,070
-156,950	124,762	0,075	-0,068
-155,935	-200,000	-0,007	-0,029
-154,920	-200,000	0,004	0,143
-153,906	61,103	-0,044	0,032
-152,891	220,959	0,061	-0,070
-151,877	-102,108	0,018	0,003
-150,862	-200,000	-0,001	-0,096
-149,847	77,241	0,059	-0,045
-148,833	43,843	-0,067	-0,044
-147,818	-200,000	0,016	0,123
-146,804	482,874	0,076	0,125
-145,789	-70,530	0,100	0,027
-144,775	593,489	0,029	0,052
-143,760	-64,533	0,122	0,035
-142,745	-200,000	-0,034	-0,135
-141,731	-200,000	0,003	-0,092
-140,716	42,071	0,029	0,019
-139,702	-200,000	-0,023	0,177
-138,687	-200,000	-0,013	0,121
-137,672	-200,000	0,031	0,149
-136,658	800,000	0,029	-0,067
-135,643	322,800	-0,057	-0,078
-134,629	160,948	-0,107	0,107
-133,614	83,959	0,033	0,026
-132,599	800,000	-0,024	-0,068
-131,585	-48,903	0,042	0,014
-130,570	-200,000	-0,005	0,070
-129,556	155,423	0,092	-0,091
-128,541	-100,778	-0,025	0,004
-127,526	-143,936	-0,022	-0,001
-126,512	563,976	-0,042	-0,074
-125,497	63,737	-0,067	0,048
-124,483	-20,567	0,097	-0,043
-123,468	-196,621	-0,125	0,001
-122,453	312,930	-0,065	-0,087
-121,439	279,069	0,059	-0,075
-120,424	-200,000	-0,006	0,145
-119,410	-101,881	-0,018	-0,003
