DTS Sentinel unit serial number:	SN410029Multiplexer serial number:	ORYXHardware model number:	OX2-SRSoftware version number:	ORYX F/W v4,00 Oryx Data Collector v3.7.2.0data status	okinstallation	B6 Nyhavnadifferential loss correction	single-endedforward channel	channel 2reverse channel	N/Adate	2023/12/09time	14:20:08forward acquisition time	300,00reverse acquisition time	0,00gamma	499,1914k internal	0,3133k external	0,3133temperature offset calibration	1,0000default loss term (dB/km)	0,3820temperature slope calibration	1,0000multiplexer offset coefficient	1,0000multiplexer slope coefficient	1,0000fibre end	0,00T internal ref (°C)	20,50T ext. ref 1 (°C)	4,32T ext. ref 2 (°C)	4,34length (m)	temperature (°C)	Stokes	anti-Stokes-744,400	102,904	0,120	-0,104
-743,385	-86,192	-0,162	0,037
-742,371	-67,817	0,059	-0,017
-741,356	169,630	-0,135	0,143
-740,342	-138,923	0,170	-0,013
-739,327	-165,025	-0,182	0,006
-738,312	244,071	0,032	-0,040
-737,298	-65,073	-0,297	0,088
-736,283	800,000	0,055	0,148
-735,269	154,126	-0,220	0,224
-734,254	618,289	-0,030	0,056
-733,239	-89,279	-0,352	-0,076
-732,225	-141,462	0,219	0,016
-731,210	-40,384	-0,050	0,019
-730,196	-128,891	-0,128	-0,013
-729,181	174,545	-0,031	-0,034
-728,167	800,000	0,049	-0,107
-727,152	68,213	-0,018	0,014
-726,137	800,000	-0,026	-0,077
-725,123	-142,560	-0,174	-0,012
-724,108	203,682	-0,151	-0,174
-723,094	-200,000	-0,006	-0,110
-722,079	58,720	-0,067	-0,049
-721,064	431,573	0,038	0,062
-720,050	329,374	-0,030	0,043
-719,035	-200,000	0,008	-0,105
-718,021	114,133	-0,103	-0,093
-717,006	-103,839	-0,094	-0,016
-715,991	71,308	-0,105	-0,081
-714,977	57,245	-0,063	-0,045
-713,962	523,676	-0,033	-0,058
-712,948	6,902	-0,052	0,029
-711,933	-63,825	-0,184	0,055
-710,918	8,015	0,049	-0,027
-709,904	-77,690	-0,109	-0,028
-708,889	232,134	-0,065	0,080
-707,875	-200,000	0,021	-0,078
-706,860	-46,932	-0,183	0,066
-705,845	-200,000	0,019	-0,086
-704,831	-67,328	0,005	0,002
-703,816	-162,118	-0,157	-0,006
-702,802	102,543	0,128	-0,111
-701,787	-125,660	-0,035	-0,004
-700,772	-200,000	0,010	0,044
-699,758	125,453	-0,043	-0,040
-698,743	649,425	0,053	-0,102
-697,729	-200,000	0,026	0,151
-696,714	222,820	0,015	0,018
-695,699	-200,000	0,002	-0,024
-694,685	498,972	-0,031	-0,053
-693,670	197,647	-0,100	0,114
-692,656	56,652	-0,058	0,042
-691,641	-156,390	-0,035	0,002
-690,627	77,034	-0,013	0,010
-689,612	-16,018	0,140	0,066
-688,597	800,000	-0,046	-0,124
-687,583	-57,825	-0,164	-0,053
-686,568	800,000	0,027	-0,074
-685,554	253,292	-0,141	0,179
-684,539	800,000	0,044	0,092
-683,524	138,967	0,134	0,131
-682,510	170,130	-0,077	-0,082
-681,495	81,340	-0,128	-0,102
-680,481	-200,000	-0,011	-0,068
-679,466	310,674	-0,038	0,053
-678,451	-15,286	-0,071	0,033
-677,437	-58,571	-0,109	0,035
-676,422	-77,900	0,109	-0,028
-675,408	800,000	-0,027	-0,059
-674,393	800,000	-0,056	-0,151
-673,378	33,267	0,023	0,015
-672,364	-25,845	-0,117	-0,051
-671,349	-171,212	-0,053	0,001
-670,335	-200,000	0,014	-0,057
-669,320	265,538	0,060	-0,078
-668,305	-49,855	0,146	-0,051
-667,291	-91,057	-0,117	0,025
-666,276	205,017	-0,021	0,025
-665,262	222,252	0,065	-0,078
-664,247	-20,842	-0,168	-0,076
-663,232	552,473	-0,054	-0,096
-662,218	-78,853	0,185	-0,046
-661,203	-200,000	0,017	0,058
-660,189	-200,000	0,004	0,110
-659,174	100,209	-0,062	-0,054
-658,159	-68,550	-0,055	-0,016
-657,145	-39,809	0,146	0,056
-656,130	254,476	-0,045	-0,057
-655,116	800,000	-0,013	-0,034
-654,101	-200,000	-0,003	0,062
-653,086	-200,000	-0,016	-0,060
-652,072	800,000	0,043	0,121
-651,057	-200,000	-0,059	-0,208
-650,043	35,921	0,067	0,043
-649,028	427,894	0,011	0,018
-648,014	153,945	-0,062	0,063
-646,999	-60,814	0,155	0,048
-645,984	-117,149	-0,166	0,022
-644,970	-26,290	-0,101	-0,044
-643,955	800,000	-0,049	0,135
-642,941	-184,367	0,046	-0,001
-641,926	-200,000	-0,003	-0,084
-640,911	125,818	0,040	-0,038
-639,897	800,000	0,032	0,065
-638,882	282,604	0,046	-0,061
-637,868	74,954	0,081	-0,063
-636,853	166,254	-0,153	-0,161
-635,838	194,979	-0,096	-0,108
-634,824	-101,840	-0,158	0,028
-633,809	458,409	-0,040	0,066
-632,795	-78,770	-0,070	0,018
-631,780	-93,304	-0,069	0,014
-630,765	-53,021	0,159	0,054
-629,751	283,200	0,023	-0,031
-628,736	108,154	-0,200	-0,176
-627,722	2,444	-0,120	-0,064
-626,707	800,000	0,017	-0,050
-625,692	325,210	0,030	-0,042
-624,678	123,315	0,094	0,087
-623,663	800,000	-0,008	-0,022
-622,649	-97,445	-0,072	-0,014
-621,634	-117,698	-0,171	-0,023
-620,619	-152,076	0,078	-0,004
-619,605	800,000	-0,048	-0,137
-618,590	800,000	0,034	-0,111
-617,576	362,740	0,001	-0,002
-616,561	-11,166	0,013	0,006
-615,546	107,010	0,075	-0,066
-614,532	-200,000	-0,042	-0,137
-613,517	-200,000	-0,005	-0,097
-612,503	-200,000	0,007	-0,040
-611,488	-200,000	0,053	0,231
-610,474	-200,000	-0,003	0,083
-609,459	-57,424	0,132	-0,042
-608,444	-200,000	-0,018	0,123
-607,430	-131,944	-0,095	0,009
-606,415	800,000	0,007	-0,020
-605,401	325,770	0,054	0,076
-604,386	464,741	0,076	-0,126
-603,371	-55,673	0,077	-0,025
-602,357	-200,000	0,033	-0,147
-601,342	238,923	-0,012	-0,015
-600,328	17,744	-0,172	-0,101
-599,313	800,000	0,017	0,051
-598,298	-56,870	-0,119	-0,039
-597,284	-200,000	-0,002	0,089
-596,269	84,072	0,021	0,017
-595,255	73,605	0,097	0,075
-594,240	-200,000	0,025	0,118
-593,225	-37,040	-0,156	-0,061
-592,211	-200,000	0,020	-0,088
-591,196	-49,704	0,102	-0,035
-590,182	285,284	0,088	0,118
-589,167	38,850	-0,026	-0,017
-588,152	188,429	-0,026	0,029
-587,138	13,769	-0,052	-0,030
-586,123	-85,989	-0,152	0,034
-585,109	-177,936	-0,104	0,002
-584,094	307,242	0,058	-0,080
-583,079	-200,000	-0,000	0,071
-582,065	-142,218	0,133	-0,010
-581,050	108,762	0,095	0,084
-580,036	800,000	0,047	0,112
-579,021	-30,870	-0,028	-0,012
-578,006	42,374	-0,119	-0,079
-576,992	-6,275	0,142	-0,071
-575,977	-63,835	-0,029	-0,009
-574,963	380,858	-0,020	0,031
-573,948	800,000	0,021	0,044
-572,934	800,000	0,027	0,079
-571,919	447,838	0,050	-0,081
-570,904	197,416	-0,034	-0,038
-569,890	-200,000	0,006	-0,045
-568,875	448,662	-0,036	-0,059
-567,861	-200,000	0,018	-0,085
-566,846	10,123	0,037	0,021
-565,831	-200,000	0,002	-0,114
-564,817	-136,968	-0,130	0,011
-563,802	222,200	0,031	0,036
-562,788	106,851	0,041	0,036
-561,773	-200,000	0,003	0,059
-560,758	-62,718	0,087	0,027
-559,744	-78,329	-0,139	0,035
-558,729	75,431	-0,051	-0,040
-557,715	-8,487	-0,077	0,038
-556,700	562,802	-0,125	-0,224
-555,685	800,000	0,006	-0,016
-554,671	-67,186	0,157	0,045
-553,656	9,539	-0,053	-0,029
-552,642	503,838	0,011	0,019
-551,627	-106,468	0,080	0,013
-550,612	53,442	-0,095	-0,067
-549,598	-58,263	-0,240	-0,076
-548,583	60,196	-0,134	0,097
-547,569	800,000	0,050	0,102
-546,554	462,339	0,034	-0,056
-545,539	390,572	0,033	0,050
-544,525	-78,128	0,114	-0,029
-543,510	-38,086	0,012	0,005
-542,496	800,000	0,021	-0,052
-541,481	-200,000	0,011	-0,170
-540,466	-74,622	0,118	0,031
-539,452	-200,000	0,002	0,038
-538,437	-38,678	0,171	-0,066
-537,423	65,077	0,080	0,059
-536,408	-61,082	0,123	0,038
-535,393	370,920	-0,047	-0,071
-534,379	210,719	0,039	0,045
-533,364	-77,283	-0,056	0,014
-532,350	800,000	-0,031	0,064
-531,335	-200,000	-0,023	-0,075
-530,321	114,552	0,053	-0,047
-529,306	208,097	0,077	0,089
-528,291	-200,000	-0,030	0,134
-527,277	-200,000	-0,002	0,096
-526,262	24,342	0,055	0,033
-525,248	800,000	-0,024	0,052
-524,233	-122,920	-0,152	0,018
-523,218	-111,170	0,043	-0,006
-522,204	-200,000	-0,018	-0,077
-521,189	-101,112	0,057	-0,010
-520,175	800,000	0,034	0,085
-519,160	-200,000	-0,010	0,121
-518,145	-152,480	0,186	-0,010
-517,131	120,605	0,034	0,031
-516,116	800,000	-0,036	0,095
-515,102	365,231	-0,065	0,097
-514,087	5,410	-0,033	-0,018
-513,072	800,000	-0,011	0,027
-512,058	-200,000	-0,027	-0,095
-511,043	-29,913	0,159	-0,067
-510,029	-138,186	0,136	0,011
-509,014	-9,083	0,073	-0,036
-507,999	-104,111	0,080	-0,014
-506,985	-111,920	-0,116	0,017
-505,970	800,000	-0,031	-0,078
-504,956	761,768	0,022	-0,044
-503,941	-200,000	-0,006	-0,063
-502,926	-200,000	-0,001	0,073
-501,912	-38,449	-0,024	-0,009
-500,897	800,000	0,024	0,069
-499,883	157,808	-0,137	-0,139
-498,868	763,242	-0,070	-0,141
-497,853	-200,000	0,004	-0,078
-496,839	-7,580	-0,062	0,031
-495,824	71,553	0,045	-0,034
-494,810	84,113	0,011	-0,009
-493,795	-14,921	0,059	-0,028
-492,781	46,142	-0,100	-0,068
-491,766	303,648	-0,030	0,041
-490,751	-137,448	-0,078	0,006
-489,737	-200,000	0,007	-0,033
-488,722	163,649	-0,016	-0,017
-487,708	-52,561	0,153	0,052
-486,693	800,000	-0,029	0,065
-485,678	-177,307	-0,033	-0,001
-484,664	-200,000	-0,031	-0,141
-483,649	315,429	-0,022	-0,030
-482,635	-73,871	0,015	0,004
-481,620	102,845	-0,030	0,026
-480,605	800,000	0,023	0,057
-479,591	-184,215	-0,122	-0,001
-478,576	-72,455	0,118	-0,032
-477,562	3,204	-0,043	0,023
-476,547	0,177	0,111	-0,058
-475,532	550,912	0,054	-0,096
-474,518	96,908	-0,059	-0,050
-473,503	-103,172	-0,032	0,006
-472,489	800,000	0,068	0,171
-471,474	185,981	-0,054	0,059
-470,459	41,914	0,021	-0,014
-469,445	500,691	0,032	-0,055
-468,430	351,560	0,028	-0,041
-467,416	130,281	-0,050	-0,047
-466,401	-31,430	0,067	-0,027
-465,386	-200,000	-0,017	-0,062
-464,372	461,385	0,049	0,080
-463,357	-200,000	0,010	-0,087
-462,343	-200,000	0,008	-0,038
-461,328	96,925	-0,027	0,023
-460,313	-191,830	0,123	0,001
-459,299	-118,739	-0,109	0,014
-458,284	-117,862	-0,045	-0,006
-457,270	800,000	0,068	-0,212
-456,255	40,059	-0,128	-0,084
-455,241	-200,000	-0,004	-0,116
-454,226	32,640	0,074	0,047
-453,211	12,199	-0,095	-0,053
-452,197	-139,201	0,116	-0,009
-451,182	-200,000	0,003	0,101
-450,168	-200,000	-0,004	0,022
-449,153	-200,000	-0,064	-0,234
-448,138	-200,000	0,019	-0,184
-447,124	-200,000	-0,002	-0,112
-446,109	46,653	0,192	0,131
-445,095	-200,000	-0,001	-0,055
-444,080	-200,000	0,013	0,065
-443,065	-27,375	-0,086	0,036
-442,051	-75,410	-0,124	-0,032
-441,036	33,169	-0,084	-0,053
-440,022	-200,000	-0,005	-0,064
-439,007	-88,106	-0,112	0,024
-437,992	321,050	-0,111	0,156
-436,978	575,376	0,048	0,087
-435,963	-200,000	-0,016	-0,144
-434,949	303,011	-0,014	-0,019
-433,934	-112,230	0,167	-0,024
-432,919	-112,278	-0,064	-0,009
-431,905	-200,000	-0,005	0,018
-430,890	800,000	-0,046	0,147
-429,876	-200,000	-0,007	0,054
-428,861	29,702	0,042	0,026
-427,846	-200,000	0,022	-0,122
-426,832	294,403	0,089	-0,120
-425,817	145,425	0,035	0,034
-424,803	67,396	-0,059	-0,044
-423,788	-200,000	-0,015	0,118
-422,773	205,927	-0,028	0,032
-421,759	-129,028	0,047	0,005
-420,744	-147,656	-0,074	-0,004
-419,730	-138,292	-0,038	-0,003
-418,715	800,000	-0,070	0,153
-417,701	-21,749	0,135	-0,060
-416,686	800,000	-0,056	0,121
-415,671	-200,000	-0,012	-0,120
-414,657	-184,674	0,128	0,001
-413,642	17,863	-0,036	0,021
-412,628	-113,787	0,107	0,015
-411,613	-75,878	-0,091	-0,024
-410,598	-200,000	0,016	-0,095
-409,584	-200,000	-0,001	-0,036
-408,569	115,538	0,097	0,087
-407,555	-200,000	0,010	0,079
-406,540	-97,117	0,147	-0,028
-405,525	335,945	-0,080	0,114
-404,511	8,424	0,099	-0,054
-403,496	-17,286	0,091	0,042
-402,482	84,930	0,026	-0,021
-401,467	514,631	0,061	0,104
-400,452	121,088	0,087	-0,080
-399,438	82,748	0,079	-0,063
-398,423	642,926	0,018	0,033
-397,409	-9,604	-0,039	-0,019
-396,394	196,968	-0,040	0,045
-395,379	125,309	-0,087	0,080
-394,365	-200,000	0,012	0,043
-393,350	-200,000	-0,016	-0,053
-392,336	-57,009	-0,052	-0,017
-391,321	-200,000	0,022	0,090
-390,306	-143,980	0,029	-0,002
-389,292	-23,094	-0,109	0,048
-388,277	-200,000	-0,012	-0,174
-387,263	-82,368	0,074	-0,017
-386,248	194,903	0,089	0,099
-385,233	-200,000	0,010	-0,090
-384,219	114,496	0,089	0,080
-383,204	-200,000	-0,001	0,022
-382,190	48,956	-0,162	-0,111
-381,175	-86,912	0,140	-0,031
-380,160	-44,450	0,121	0,044
-379,146	91,934	0,133	0,110
-378,131	128,718	0,055	0,051
-377,117	-200,000	0,001	-0,067
-376,102	94,978	0,114	-0,095
-375,088	54,260	-0,115	-0,081
-374,073	391,644	0,000	0,000
-373,058	-20,009	-0,127	0,057
-372,044	27,294	0,076	0,047
-371,029	-99,230	-0,036	0,007
-370,015	800,000	0,027	0,062
-369,000	215,428	0,079	0,092
-367,985	185,914	-0,143	-0,156
-366,971	175,472	0,096	0,102
-365,956	20,638	-0,065	0,038
-364,942	548,244	0,044	-0,077
-363,927	-200,000	0,027	0,112
-362,912	800,000	0,044	0,127
-361,898	800,000	0,008	0,022
-360,883	-200,000	-0,006	-0,098
-359,869	11,614	-0,084	-0,047
-358,854	-135,707	0,107	-0,009
-357,839	-41,183	0,155	0,058
-356,825	181,826	-0,036	-0,039
-355,810	523,641	-0,087	0,150
-354,796	-11,501	-0,065	-0,031
-353,781	-200,000	-0,011	0,057
-352,766	-200,000	-0,024	-0,120
-351,752	800,000	0,047	0,119
-350,737	800,000	-0,051	0,133
-349,723	19,016	0,013	0,008
-348,708	540,707	0,027	0,047
-347,693	800,000	-0,031	0,071
-346,679	-19,178	-0,069	0,031
-345,664	-200,000	-0,020	-0,171
-344,650	-90,222	-0,157	0,033
-343,635	-200,000	-0,034	0,132
-342,620	800,000	-0,027	0,060
-341,606	-14,587	0,171	0,080
-340,591	-106,327	0,035	-0,006
-339,577	102,899	-0,062	0,053
-338,562	225,494	-0,056	-0,066
-337,548	-200,000	0,014	-0,049
-336,533	22,881	0,068	0,040
-335,518	800,000	0,036	-0,075
-334,504	-200,000	-0,008	-0,061
-333,489	146,451	-0,094	-0,092
-332,475	-14,953	-0,111	-0,052
-331,460	800,000	0,032	-0,075
-330,445	-200,000	0,020	-0,163
-329,431	-18,996	0,019	0,008
-328,416	-96,721	0,125	0,024
-327,402	-200,000	0,024	0,192
-326,387	-200,000	-0,008	0,062
-325,372	769,355	0,019	0,039
-324,358	115,319	0,069	-0,061
-323,343	119,176	-0,039	0,036
-322,329	138,060	0,016	-0,016
-321,314	9,817	0,121	-0,067
-320,299	65,800	-0,053	0,040
-319,285	800,000	-0,033	-0,090
-318,270	-200,000	0,034	-0,141
-317,256	-200,000	-0,002	-0,021
-316,241	-200,000	-0,017	-0,136
-315,226	436,708	0,053	-0,085
-314,212	17,877	-0,018	-0,011
-313,197	-200,000	0,035	-0,116
-312,183	46,562	-0,049	-0,033
-311,168	680,661	0,046	0,089
-310,153	-200,000	-0,009	-0,028
-309,139	-153,874	0,175	0,009
-308,124	-42,093	-0,076	0,028
-307,110	-22,054	0,159	0,070
-306,095	-72,123	0,088	-0,024
-305,080	19,090	-0,085	0,050
-304,066	-94,662	-0,045	0,009
-303,051	-38,453	-0,086	0,033
-302,037	178,633	0,077	0,082
-301,022	-134,670	0,057	0,005
-300,008	510,278	-0,113	0,192
-298,993	-200,000	0,002	0,130
-297,978	-60,212	-0,049	0,015
-296,964	-200,000	-0,018	-0,084
-295,949	84,391	-0,058	-0,046
-294,935	-41,212	-0,122	0,046
-293,920	-12,779	-0,045	0,021
-292,905	470,768	-0,081	0,133
-291,891	800,000	-0,014	0,035
-290,876	12,418	-0,088	0,049
-289,862	-200,000	-0,017	-0,090
-288,847	16,330	0,043	0,025
-287,832	106,194	0,061	0,053
-286,818	-200,000	0,007	-0,033
-285,803	469,706	0,092	-0,151
-284,789	-200,000	-0,014	0,054
-283,774	800,000	-0,056	0,143
-282,759	800,000	0,038	-0,089
-281,745	45,788	0,069	0,046
-280,730	-152,482	-0,154	-0,008
-279,716	204,732	0,070	-0,079
-278,701	-57,992	-0,077	0,024
-277,686	6,178	-0,135	0,073
-276,672	-200,000	-0,009	0,112
-275,657	-168,183	0,090	-0,002
-274,643	-200,000	-0,014	-0,076
-273,628	-200,000	-0,025	0,154
-272,613	128,389	0,100	-0,093
-271,599	699,649	0,025	-0,048
-270,584	80,169	0,021	0,016
-269,570	-200,000	0,012	0,065
-268,555	41,323	0,026	0,017
-267,540	-80,730	0,086	-0,021
-266,526	-57,287	-0,122	-0,039
-265,511	-24,500	0,076	-0,033
-264,497	-120,362	0,212	-0,026
-263,482	-188,478	0,183	-0,002
-262,467	222,941	-0,112	0,131
-261,453	-37,733	0,096	0,037
-260,438	30,111	-0,156	-0,097
-259,424	-137,215	-0,061	-0,005
-258,409	7,807	-0,096	-0,052
-257,395	529,970	-0,040	-0,069
-256,380	-70,485	0,010	-0,003
-255,365	-200,000	0,034	0,123
-254,351	-200,000	-0,005	-0,091
-253,336	-10,171	-0,190	-0,092
-252,322	105,723	0,086	-0,074
-251,307	800,000	0,014	-0,044
-250,292	800,000	0,024	0,074
-249,278	409,422	-0,071	0,110
-248,263	48,633	0,108	0,074
-247,249	-200,000	0,013	0,069
-246,234	124,753	0,010	-0,010
-245,219	-200,000	-0,033	-0,147
-244,205	0,622	0,062	-0,032
-243,190	67,528	-0,052	0,038
-242,176	-200,000	-0,020	0,088
-241,161	-200,000	-0,021	-0,098
-240,146	100,167	0,052	-0,044
-239,132	-200,000	0,002	0,116
-238,117	-121,044	-0,144	0,017
-237,103	-200,000	0,012	0,103
-236,088	13,302	0,059	0,033
-235,073	170,428	-0,043	0,045
-234,059	2,553	-0,070	0,037
-233,044	-200,000	-0,006	-0,075
-232,030	800,000	-0,006	-0,013
-231,015	-116,570	-0,071	0,009
-230,000	-6,394	-0,083	-0,041
-228,986	141,873	-0,005	-0,005
-227,971	-200,000	0,008	0,027
-226,957	374,441	-0,034	0,051
-225,942	449,377	0,049	0,079
-224,927	-138,570	0,123	-0,010
-223,913	-89,543	-0,058	-0,012
-222,898	-26,470	0,093	0,040
-221,884	-24,551	-0,100	0,043
-220,869	-18,712	0,173	0,078
-219,855	-200,000	-0,026	0,112
-218,840	-200,000	0,018	-0,083
-217,825	-53,806	0,101	-0,033
-216,811	152,316	0,063	0,062
-215,796	89,117	-0,067	-0,054
-214,782	124,412	0,050	-0,046
-213,767	800,000	0,011	0,028
-212,752	-200,000	0,019	-0,120
-211,738	226,665	-0,141	0,167
-210,723	-200,000	-0,016	0,100
-209,709	41,013	-0,075	0,049
-208,694	51,392	-0,095	0,066
-207,679	800,000	-0,096	-0,215
-206,665	-110,256	-0,112	-0,017
-205,650	723,069	0,041	-0,079
-204,636	48,735	0,090	0,061
-203,621	84,412	0,056	0,044
-202,606	-200,000	-0,008	-0,073
-201,592	800,000	-0,057	-0,122
-200,577	-82,380	-0,154	0,036
-199,563	-167,803	0,071	0,002
-198,548	337,589	0,063	0,090
-197,533	6,065	0,015	-0,008
-196,519	90,450	-0,013	0,011
-195,504	435,870	-0,062	0,099
-194,490	-200,000	-0,020	-0,125
-193,475	92,365	-0,063	0,051
-192,460	57,739	-0,026	-0,019
-191,446	-82,092	0,076	0,018
-190,431	-118,811	0,093	-0,012
-189,417	-200,000	0,013	0,099
-188,402	119,759	-0,061	0,055
-187,387	-200,000	0,008	-0,101
-186,373	610,240	-0,037	-0,067
-185,358	32,594	0,072	-0,045
-184,344	-46,855	0,088	0,031
-183,329	-200,000	0,023	0,128
-182,315	-200,000	0,020	0,160
-181,300	-54,354	-0,031	0,010
-180,285	284,098	-0,079	0,103
-179,271	-200,000	0,026	-0,087
-178,256	-46,654	-0,163	-0,058
-177,242	-200,000	0,002	0,093
-176,227	-200,000	-0,025	0,162
-175,212	195,783	0,030	0,033
-174,198	-200,000	-0,036	-0,167
-173,183	-200,000	-0,009	-0,126
-172,169	800,000	0,056	-0,117
-171,154	6,048	0,009	0,005
-170,139	-95,300	0,035	-0,007
-169,125	-106,943	0,055	0,009
-168,110	225,438	0,019	0,022
-167,096	148,130	-0,158	-0,155
-166,081	-200,000	-0,005	-0,048
-165,066	-200,000	-0,011	0,092
-164,052	-125,388	-0,092	-0,010
-163,037	-69,157	0,085	-0,023
-162,023	49,006	0,058	0,040
-161,008	800,000	0,042	-0,088
-159,993	-72,750	-0,128	0,034
-158,979	74,012	-0,049	0,037
-157,964	-200,000	0,018	0,110
-156,950	-200,000	-0,013	0,046
-155,935	800,000	-0,014	0,038
-154,920	-200,000	-0,021	0,120
-153,906	13,745	-0,031	-0,017
-152,891	354,416	0,108	0,156
-151,877	-137,855	-0,102	0,008
-150,862	402,992	-0,058	0,089
-149,847	-21,471	-0,122	0,054
-148,833	33,830	-0,097	-0,061
-147,818	419,244	0,063	0,097
-146,804	123,549	0,079	0,072
-145,789	-59,308	-0,124	0,038
-144,775	516,351	0,076	-0,129
-143,760	-39,846	0,092	0,035
-142,745	44,430	-0,102	0,068
-141,731	18,143	-0,101	0,059
-140,716	-191,816	0,056	0,000
-139,702	512,802	0,049	0,083
-138,687	-45,949	0,130	-0,046
-137,672	-125,989	-0,075	0,008
-136,658	-182,193	-0,111	0,001
-135,643	800,000	-0,020	0,045
-134,629	-200,000	0,027	0,107
-133,614	246,400	-0,023	-0,028
-132,599	371,647	0,043	-0,063
-131,585	-200,000	-0,002	0,060
-130,570	-200,000	-0,001	0,064
-129,556	800,000	0,014	-0,041
-128,541	-66,555	-0,071	-0,020
-127,526	800,000	-0,030	-0,082
-126,512	189,501	0,093	0,101
-125,497	-200,000	0,018	0,066
-124,483	43,742	0,081	0,053
-123,468	-113,111	-0,079	0,011
-122,453	800,000	0,009	0,025
-121,439	-88,105	-0,137	0,029
-120,424	276,814	0,026	0,033
-119,410	490,057	0,029	-0,048
