DTS Sentinel unit serial number:	SN410029Multiplexer serial number:	ORYXHardware model number:	OX2-SRSoftware version number:	ORYX F/W v4,00 Oryx Data Collector v3.7.2.0data status	okinstallation	B6 Nyhavnadifferential loss correction	single-endedforward channel	channel 2reverse channel	N/Adate	2023/12/07time	14:35:09forward acquisition time	300,00reverse acquisition time	0,00gamma	499,1914k internal	0,3196k external	0,3196temperature offset calibration	1,0000default loss term (dB/km)	0,3820temperature slope calibration	1,0000multiplexer offset coefficient	1,0000multiplexer slope coefficient	1,0000fibre end	0,00T internal ref (°C)	13,82T ext. ref 1 (°C)	-1,77T ext. ref 2 (°C)	-1,76length (m)	temperature (°C)	Stokes	anti-Stokes-744,400	-200,000	-0,023	0,117
-743,385	-110,458	-0,283	-0,042
-742,371	75,378	0,189	0,145
-741,356	-49,101	-0,240	-0,083
-740,342	519,815	0,100	0,171
-739,327	-86,984	-0,386	-0,085
-738,312	-145,769	0,097	0,006
-737,298	-92,090	-0,237	-0,048
-736,283	800,000	-0,047	-0,144
-735,269	-32,418	-0,141	0,057
-734,254	59,064	-0,022	-0,016
-733,239	-36,505	-0,453	-0,177
-732,225	-98,189	0,257	0,048
-731,210	-200,000	0,012	0,113
-730,196	-200,000	0,031	-0,181
-729,181	800,000	0,039	-0,082
-728,167	-55,131	-0,114	-0,037
-727,152	800,000	0,037	0,110
-726,137	800,000	-0,031	-0,079
-725,123	-60,171	-0,107	-0,033
-724,108	15,359	-0,070	-0,040
-723,094	-71,726	-0,120	-0,032
-722,079	33,103	-0,145	-0,091
-721,064	-123,162	0,172	0,020
-720,050	-86,326	0,028	-0,006
-719,035	-200,000	-0,001	-0,032
-718,021	615,591	-0,023	0,042
-717,006	800,000	0,014	-0,037
-715,991	-200,000	-0,022	-0,160
-714,977	800,000	-0,090	-0,246
-713,962	588,800	0,031	0,055
-712,948	-200,000	-0,013	0,080
-711,933	161,952	-0,113	-0,116
-710,918	55,836	0,060	-0,042
-709,904	-128,477	-0,104	-0,011
-708,889	73,659	-0,118	-0,090
-707,875	38,023	-0,116	-0,075
-706,860	-200,000	0,015	-0,060
-705,845	-45,952	0,076	-0,027
-704,831	-200,000	0,017	-0,071
-703,816	-19,778	-0,163	-0,073
-702,802	600,266	0,081	-0,146
-701,787	304,198	-0,084	-0,113
-700,772	366,770	-0,091	-0,134
-699,758	202,849	0,069	0,078
-698,743	71,979	0,053	-0,040
-697,729	94,546	0,053	-0,044
-696,714	-154,399	-0,014	0,001
-695,699	-68,027	-0,158	-0,044
-694,685	163,937	-0,040	-0,041
-693,670	369,316	-0,039	-0,058
-692,656	105,574	0,074	0,064
-691,641	57,506	0,088	0,062
-690,627	-66,747	-0,169	0,048
-689,612	-171,988	0,076	0,002
-688,597	84,791	-0,059	0,047
-687,583	172,880	-0,160	-0,167
-686,568	-168,890	0,126	0,003
-685,554	-69,924	0,075	-0,020
-684,539	-19,221	-0,044	-0,020
-683,524	-12,522	-0,049	0,023
-682,510	220,965	0,078	0,091
-681,495	140,639	-0,078	0,075
-680,481	-200,000	0,002	-0,082
-679,466	-127,231	0,039	-0,004
-678,451	-85,634	0,089	-0,020
-677,437	800,000	0,037	0,082
-676,422	50,360	0,171	-0,117
-675,408	-52,291	-0,067	0,023
-674,393	-99,944	-0,138	0,025
-673,378	-45,138	-0,173	0,062
-672,364	570,233	-0,016	-0,029
-671,349	765,977	-0,094	-0,187
-670,335	-119,588	-0,108	0,013
-669,320	146,386	0,072	-0,070
-668,305	800,000	0,029	0,084
-667,291	181,396	-0,078	-0,083
-666,276	48,644	-0,009	0,006
-665,262	-97,977	-0,006	-0,001
-664,247	-158,222	-0,109	0,005
-663,232	-111,561	0,083	-0,012
-662,218	-200,000	0,021	-0,076
-661,203	-200,000	-0,005	-0,028
-660,189	651,473	0,041	0,077
-659,174	255,519	-0,093	-0,116
-658,159	-200,000	-0,006	-0,152
-657,145	800,000	0,009	-0,024
-656,130	-200,000	0,028	-0,109
-655,116	-162,506	0,077	0,003
-654,101	-0,155	-0,130	-0,067
-653,086	362,711	-0,006	-0,009
-652,072	-108,784	0,029	-0,004
-651,057	-29,173	-0,122	-0,051
-650,043	-200,000	0,006	-0,069
-649,028	-51,439	0,052	-0,017
-648,014	440,995	0,020	-0,032
-646,999	430,180	0,028	0,044
-645,984	-156,814	-0,101	0,004
-644,970	800,000	-0,012	-0,028
-643,955	260,062	-0,058	-0,073
-642,941	513,091	-0,040	0,067
-641,926	147,477	0,017	-0,016
-640,911	800,000	0,046	0,128
-639,897	-200,000	-0,008	-0,031
-638,882	-200,000	-0,048	0,168
-637,868	146,189	-0,050	-0,048
-636,853	-161,686	-0,148	-0,005
-635,838	-200,000	0,006	0,041
-634,824	800,000	0,026	0,056
-633,809	683,354	-0,020	0,038
-632,795	14,668	0,025	-0,014
-631,780	486,594	0,050	0,083
-630,765	30,750	-0,048	-0,030
-629,751	183,179	-0,001	-0,002
-628,736	-200,000	0,029	-0,102
-627,722	154,245	-0,039	0,038
-626,707	800,000	-0,039	-0,082
-625,692	136,846	-0,064	-0,060
-624,678	-16,740	0,008	0,004
-623,663	800,000	-0,041	-0,107
-622,649	62,423	0,035	0,026
-621,634	-10,937	-0,048	0,023
-620,619	119,508	0,029	-0,026
-619,605	-133,448	0,124	0,011
-618,590	-69,275	-0,017	0,005
-617,576	-200,000	0,007	0,049
-616,561	784,999	-0,029	0,059
-615,546	19,177	-0,034	-0,020
-614,532	54,464	0,009	-0,006
-613,517	800,000	-0,011	0,029
-612,503	80,053	-0,122	0,095
-611,488	201,027	0,141	0,157
-610,474	139,546	-0,114	-0,109
-609,459	-200,000	-0,006	0,029
-608,444	-50,309	-0,017	-0,006
-607,430	111,982	0,048	-0,042
-606,415	-154,535	-0,064	0,003
-605,401	-93,768	0,123	0,024
-604,386	126,337	0,093	0,085
-603,371	15,331	-0,026	-0,015
-602,357	113,128	-0,077	-0,068
-601,342	307,847	-0,043	-0,058
-600,328	196,414	-0,016	-0,018
-599,313	416,669	-0,036	0,056
-598,298	-200,000	0,002	-0,074
-597,284	86,293	-0,059	0,047
-596,269	-18,194	0,090	-0,041
-595,255	-200,000	-0,001	-0,052
-594,240	-200,000	-0,023	-0,077
-593,225	-200,000	-0,001	-0,092
-592,211	-111,260	0,027	0,004
-591,196	800,000	0,033	-0,097
-590,182	-51,008	-0,051	-0,017
-589,167	-200,000	-0,028	0,138
-588,152	-200,000	0,022	-0,119
-587,138	382,237	-0,069	-0,103
-586,123	452,640	0,043	-0,070
-585,109	149,821	-0,102	-0,100
-584,094	-200,000	0,025	-0,123
-583,079	-17,699	-0,076	-0,034
-582,065	126,842	0,064	-0,059
-581,050	518,118	0,053	0,090
-580,036	-200,000	-0,000	-0,116
-579,021	800,000	-0,045	-0,126
-578,006	18,067	-0,079	0,045
-576,992	40,146	-0,140	-0,091
-575,977	-95,582	0,165	0,032
-574,963	113,673	0,146	-0,128
-573,948	800,000	0,032	0,076
-572,934	23,627	0,061	0,037
-571,919	-46,985	-0,096	-0,034
-570,904	-200,000	-0,036	-0,141
-569,890	-22,988	0,038	-0,017
-568,875	-200,000	0,015	0,092
-567,861	-200,000	0,017	-0,123
-566,846	56,212	-0,146	0,103
-565,831	102,607	0,066	-0,056
-564,817	-91,112	0,221	0,045
-563,802	398,787	-0,021	-0,032
-562,788	-102,515	-0,107	0,018
-561,773	800,000	0,025	-0,070
-560,758	-200,000	-0,018	0,117
-559,744	94,931	-0,074	-0,061
-558,729	-5,073	0,144	-0,071
-557,715	644,020	-0,057	-0,106
-556,700	256,162	0,040	-0,050
-555,685	800,000	0,019	0,040
-554,671	800,000	0,010	-0,029
-553,656	90,455	0,059	0,047
-552,642	-200,000	0,005	-0,054
-551,627	-110,606	-0,114	0,017
-550,612	-25,222	-0,130	-0,055
-549,598	41,679	-0,041	-0,027
-548,583	-23,342	0,033	0,014
-547,569	604,388	-0,074	-0,134
-546,554	373,560	0,056	-0,083
-545,539	-200,000	0,001	0,047
-544,525	-36,321	-0,075	-0,029
-543,510	-78,047	0,094	0,023
-542,496	-200,000	0,024	0,099
-541,481	32,577	-0,098	-0,061
-540,466	-200,000	-0,019	-0,083
-539,452	-35,466	0,067	0,026
-538,437	-200,000	-0,004	0,041
-537,423	-200,000	-0,004	-0,051
-536,408	649,161	0,048	0,090
-535,393	-129,738	-0,080	0,008
-534,379	53,845	-0,141	0,097
-533,364	-3,446	-0,111	0,056
-532,350	269,611	0,083	0,105
-531,335	-200,000	0,011	0,060
-530,321	74,310	-0,085	-0,065
-529,306	57,774	0,040	0,028
-528,291	78,656	0,050	0,039
-527,277	233,545	0,050	-0,059
-526,262	-141,314	-0,126	0,009
-525,248	800,000	0,015	-0,043
-524,233	-72,427	-0,210	0,056
-523,218	800,000	0,025	0,069
-522,204	800,000	-0,027	0,074
-521,189	800,000	0,047	0,128
-520,175	-33,109	0,105	-0,042
-519,160	-112,111	0,003	0,000
-518,145	-71,709	-0,020	0,005
-517,131	172,252	-0,080	0,083
-516,116	81,715	-0,054	0,042
-515,102	483,747	-0,068	0,112
-514,087	800,000	-0,022	-0,052
-513,072	778,624	0,051	-0,101
-512,058	-93,605	-0,128	-0,025
-511,043	87,695	-0,054	0,043
-510,029	259,923	0,046	0,058
-509,014	551,674	0,024	0,042
-507,999	-200,000	0,006	0,095
-506,985	3,326	-0,071	0,037
-505,970	-111,176	-0,129	-0,019
-504,956	306,957	0,037	0,050
-503,941	-71,757	0,168	0,045
-502,926	-121,707	-0,150	-0,018
-501,912	-171,079	-0,069	0,002
-500,897	-200,000	0,002	0,068
-499,883	377,932	0,064	-0,095
-498,868	-200,000	-0,058	-0,205
-497,853	-200,000	-0,013	-0,122
-496,839	230,432	0,040	-0,048
-495,824	56,836	-0,021	-0,015
-494,810	800,000	-0,032	0,086
-493,795	745,823	0,020	0,040
-492,781	800,000	0,032	-0,081
-491,766	-149,815	-0,102	-0,006
-490,751	800,000	-0,058	-0,146
-489,737	-93,795	0,121	-0,024
-488,722	700,384	-0,027	0,051
-487,708	-200,000	0,011	0,135
-486,693	-96,972	-0,068	0,013
-485,678	800,000	-0,028	0,085
-484,664	210,855	-0,021	-0,023
-483,649	315,558	-0,015	0,020
-482,635	-196,056	-0,048	0,000
-481,620	-53,936	0,079	-0,026
-480,605	94,828	0,083	-0,068
-479,591	-200,000	0,013	0,064
-478,576	-7,383	-0,015	0,007
-477,562	146,875	-0,109	0,106
-476,547	800,000	-0,017	0,047
-475,532	690,428	0,007	0,014
-474,518	-200,000	-0,016	0,118
-473,503	303,149	0,035	0,047
-472,489	97,332	-0,018	0,015
-471,474	191,293	0,030	-0,032
-470,459	-86,908	-0,098	0,021
-469,445	-89,879	0,129	-0,027
-468,430	129,623	0,057	0,053
-467,416	331,145	0,109	-0,152
-466,401	800,000	0,070	0,164
-465,386	403,983	0,095	0,145
-464,372	800,000	-0,032	0,084
-463,357	800,000	-0,051	0,109
-462,343	296,811	0,023	-0,030
-461,328	-122,333	-0,067	0,008
-460,313	-132,540	-0,049	-0,005
-459,299	-200,000	-0,007	-0,067
-458,284	-200,000	-0,025	-0,104
-457,270	-55,390	0,086	-0,028
-456,255	-200,000	-0,003	-0,039
-455,241	-200,000	0,017	-0,113
-454,226	-87,987	-0,084	0,018
-453,211	-118,103	0,113	0,014
-452,197	-200,000	-0,007	0,132
-451,182	428,233	-0,073	0,114
-450,168	800,000	0,068	0,147
-449,153	-119,399	0,055	0,007
-448,138	-117,706	-0,046	-0,006
-447,124	170,456	-0,054	-0,056
-446,109	562,295	0,027	0,046
-445,095	-123,176	0,181	0,021
-444,080	-85,175	-0,125	0,028
-443,065	-153,302	0,073	0,004
-442,051	800,000	0,036	-0,085
-441,036	-125,696	-0,199	0,021
-440,022	-16,386	0,055	-0,025
-439,007	346,889	-0,093	0,131
-437,992	-25,012	0,123	-0,052
-436,978	800,000	-0,023	0,053
-435,963	-200,000	-0,002	0,083
-434,949	793,524	0,034	0,069
-433,934	-200,000	-0,013	-0,047
-432,919	76,994	-0,047	-0,036
-431,905	-200,000	-0,020	-0,096
-430,890	716,924	0,046	-0,089
-429,876	97,420	0,107	-0,088
-428,861	-56,816	-0,089	-0,028
-427,846	-116,934	-0,070	0,009
-426,832	156,944	0,010	-0,010
-425,817	126,408	-0,044	-0,040
-424,803	800,000	-0,026	-0,065
-423,788	-200,000	-0,009	-0,038
-422,773	140,001	-0,111	0,105
-421,759	-200,000	-0,006	0,038
-420,744	800,000	-0,059	0,166
-419,730	139,576	0,082	-0,078
-418,715	-64,044	-0,196	-0,057
-417,701	-98,607	-0,050	-0,009
-416,686	-200,000	0,003	-0,011
-415,671	118,760	0,091	0,081
-414,657	234,244	0,052	0,062
-413,642	17,847	0,043	-0,025
-412,628	220,679	0,096	-0,111
-411,613	294,378	-0,060	0,079
-410,598	203,437	-0,028	-0,032
-409,584	285,651	0,053	0,069
-408,569	-82,780	0,076	0,017
-407,555	-42,922	-0,073	0,027
-406,540	368,331	0,068	-0,099
-405,525	-102,716	-0,036	-0,006
-404,511	57,991	-0,056	0,039
-403,496	-113,298	0,055	-0,008
-402,482	366,950	0,026	-0,039
-401,467	561,762	0,057	0,099
-400,452	-200,000	0,014	0,054
-399,438	800,000	-0,014	0,030
-398,423	-200,000	0,011	-0,059
-397,409	36,535	0,136	0,086
-396,394	-101,497	0,062	-0,011
-395,379	800,000	0,037	0,094
-394,365	124,029	0,029	0,026
-393,350	-200,000	0,022	0,136
-392,336	800,000	0,052	0,129
-391,321	381,582	0,038	-0,056
-390,306	800,000	-0,024	-0,066
-389,292	56,971	-0,157	-0,109
-388,277	22,164	0,041	-0,024
-387,263	174,961	0,100	-0,104
-386,248	-96,335	0,138	0,026
-385,233	310,175	-0,021	0,028
-384,219	180,074	0,062	0,065
-383,204	90,417	-0,033	-0,026
-382,190	-61,113	0,049	-0,015
-381,175	3,330	-0,096	-0,050
-380,160	682,543	-0,041	0,077
-379,146	-195,232	0,127	0,001
-378,131	42,143	0,046	-0,030
-377,117	-200,000	-0,012	-0,166
-376,102	209,750	-0,059	-0,067
-375,088	-200,000	-0,007	-0,035
-374,073	-30,002	-0,089	-0,036
-373,058	-89,026	0,007	-0,001
-372,044	-1,641	-0,076	-0,038
-371,029	174,175	-0,079	0,082
-370,015	-200,000	0,000	0,077
-369,000	-97,843	0,109	0,020
-367,985	105,791	-0,032	0,027
-366,971	154,674	-0,034	-0,034
-365,956	-200,000	0,006	0,104
-364,942	-80,591	0,106	0,025
-363,927	-116,179	0,173	0,023
-362,912	800,000	-0,007	0,016
-361,898	-70,161	-0,112	0,030
-360,883	153,795	0,014	-0,014
-359,869	800,000	-0,057	-0,163
-358,854	-200,000	-0,024	0,095
-357,839	-43,103	0,115	0,041
-356,825	-50,792	0,057	0,019
-355,810	-67,132	-0,022	0,006
-354,796	-114,862	0,119	0,016
-353,781	237,064	0,103	-0,122
-352,766	92,282	0,051	0,041
-351,752	600,686	-0,029	0,052
-350,737	122,984	0,054	0,048
-349,723	-200,000	-0,014	0,151
-348,708	-200,000	-0,009	0,049
-347,693	-200,000	0,034	0,000
-346,679	142,310	-0,070	0,067
-345,664	107,358	-0,078	-0,066
-344,650	72,520	-0,053	-0,040
-343,635	-200,000	0,014	-0,137
-342,620	-28,261	0,116	0,048
-341,606	-200,000	0,008	-0,099
-340,591	-200,000	-0,081	0,000
-339,577	47,210	-0,119	0,079
-338,562	-134,924	-0,087	-0,007
-337,548	-200,000	0,005	-0,039
-336,533	800,000	0,045	0,097
-335,518	800,000	-0,022	-0,057
-334,504	148,081	-0,034	-0,033
-333,489	-67,661	0,034	-0,009
-332,475	63,811	-0,081	-0,058
-331,460	-31,905	0,093	-0,037
-330,445	-26,263	0,095	-0,040
-329,431	-41,711	0,019	-0,007
-328,416	-15,841	0,131	0,059
-327,402	71,523	-0,134	0,100
-326,387	-114,893	0,084	0,011
-325,372	-129,229	-0,185	-0,018
-324,358	-69,471	0,083	-0,023
-323,343	14,018	-0,038	-0,021
-322,329	-29,450	0,025	-0,010
-321,314	225,382	0,065	0,076
-320,299	-3,772	-0,100	0,050
-319,285	-200,000	-0,002	-0,026
-318,270	-118,632	0,105	0,013
-317,256	484,814	-0,066	-0,108
-316,241	-200,000	0,000	0,083
-315,226	36,476	0,140	0,088
-314,212	-200,000	-0,011	-0,074
-313,197	-7,445	-0,090	-0,044
-312,183	748,285	0,041	-0,080
-311,168	-64,165	0,150	0,044
-310,153	-14,309	-0,040	0,018
-309,139	-2,935	0,027	0,014
-308,124	-117,668	0,120	0,015
-307,110	800,000	0,049	0,113
-306,095	40,863	0,067	0,043
-305,080	-200,000	0,000	-0,075
-304,066	548,203	-0,044	-0,075
-303,051	349,937	-0,074	-0,105
-302,037	-200,000	0,023	-0,091
-301,022	64,432	0,151	0,109
-300,008	-179,139	-0,109	-0,002
-298,993	706,608	0,047	0,090
-297,978	-200,000	-0,009	-0,158
-296,964	-200,000	-0,041	-0,187
-295,949	800,000	-0,034	-0,100
-294,935	800,000	0,037	-0,105
-293,920	-18,960	0,072	-0,032
-292,905	-200,000	0,026	-0,087
-291,891	-51,146	0,115	-0,038
-290,876	705,693	-0,035	0,067
-289,862	-200,000	0,002	-0,101
-288,847	5,609	-0,103	-0,054
-287,832	800,000	0,030	-0,088
-286,818	188,964	-0,028	-0,030
-285,803	571,946	0,012	0,022
-284,789	-200,000	0,026	0,142
-283,774	-148,612	-0,139	-0,008
-282,759	-4,686	0,133	-0,065
-281,745	448,688	-0,078	-0,124
-280,730	172,030	0,059	0,061
-279,716	187,948	-0,011	0,012
-278,701	800,000	-0,023	-0,064
-277,686	-175,427	0,103	0,002
-276,672	730,862	-0,036	-0,070
-275,657	495,187	-0,003	-0,006
-274,643	-200,000	0,030	-0,124
-273,628	-82,079	-0,112	0,026
-272,613	800,000	0,026	-0,067
-271,599	-178,213	-0,073	0,001
-270,584	5,641	0,069	0,036
-269,570	-200,000	-0,012	0,055
-268,555	-200,000	-0,008	0,205
-267,540	-32,974	-0,130	0,052
-266,526	-34,767	0,077	-0,030
-265,511	-200,000	-0,001	0,105
-264,497	-200,000	-0,010	-0,071
-263,482	133,396	0,021	0,020
-262,467	509,719	-0,044	0,074
-261,453	184,686	-0,066	0,070
-260,438	-169,479	0,068	0,002
-259,424	285,561	-0,029	0,037
-258,409	-83,498	-0,047	0,011
-257,395	402,973	0,032	-0,049
-256,380	800,000	-0,053	0,147
-255,365	-159,822	0,101	0,004
-254,351	-160,654	-0,031	-0,001
-253,336	800,000	0,019	0,053
-252,322	72,558	-0,037	0,027
-251,307	263,697	0,007	-0,009
-250,292	89,054	0,114	-0,090
-249,278	-200,000	0,060	-0,000
-248,263	-37,111	0,122	0,046
-247,249	150,073	-0,101	-0,097
-246,234	-200,000	-0,013	0,065
-245,219	-200,000	0,008	-0,126
-244,205	-200,000	-0,015	-0,049
-243,190	184,224	-0,077	0,082
-242,176	309,417	-0,099	0,132
-241,161	-200,000	0,004	0,089
-240,146	179,815	-0,062	0,065
-239,132	-3,497	-0,120	0,060
-238,117	-200,000	-0,008	-0,060
-237,103	-119,732	-0,111	-0,013
-236,088	800,000	-0,047	0,111
-235,073	-95,287	0,116	0,022
-234,059	-200,000	0,010	-0,048
-233,044	263,043	0,012	-0,015
-232,030	195,972	0,022	-0,024
-231,015	87,393	-0,080	-0,063
-230,000	721,727	0,017	-0,033
-228,986	-128,704	-0,050	0,005
-227,971	361,676	0,020	0,029
-226,957	-200,000	0,003	-0,040
-225,942	495,045	0,051	-0,084
-224,927	-13,502	-0,062	0,028
-223,913	178,565	-0,114	-0,119
-222,898	235,210	-0,056	-0,066
-221,884	-19,746	0,168	0,074
-220,869	-200,000	-0,014	-0,049
-219,855	-98,208	0,101	0,018
-218,840	-84,711	0,052	0,012
-217,825	612,241	0,048	-0,087
-216,811	291,435	-0,066	0,086
-215,796	90,294	-0,050	-0,040
-214,782	800,000	0,064	0,145
-213,767	488,862	-0,021	-0,034
-212,752	50,515	0,064	-0,043
-211,738	451,924	-0,057	-0,089
-210,723	-112,007	0,067	0,010
-209,709	-47,899	-0,078	0,027
-208,694	591,042	0,040	-0,070
-207,679	-200,000	-0,001	0,112
-206,665	-58,768	0,128	-0,039
-205,650	-200,000	0,012	-0,130
-204,636	216,491	0,022	-0,025
-203,621	800,000	-0,021	0,049
-202,606	-200,000	-0,033	-0,121
-201,592	24,725	-0,089	-0,053
-200,577	-200,000	0,006	-0,080
-199,563	-131,908	0,075	-0,007
-198,548	179,018	-0,118	-0,123
-197,533	-81,985	0,088	-0,020
-196,519	-77,510	0,051	-0,012
-195,504	241,376	-0,111	-0,133
-194,490	351,653	0,130	-0,185
-193,475	800,000	0,059	0,145
-192,460	-102,711	-0,157	0,026
-191,446	32,276	0,080	0,049
-190,431	-200,000	0,028	0,188
-189,417	120,766	-0,046	0,041
-188,402	168,414	-0,039	-0,040
-187,387	149,440	0,041	0,040
-186,373	166,049	-0,031	-0,031
-185,358	239,993	0,070	0,083
-184,344	-200,000	-0,002	0,048
-183,329	379,135	0,054	0,079
-182,315	-9,197	0,117	0,055
-181,300	-36,474	-0,147	0,056
-180,285	517,685	0,052	-0,086
-179,271	147,073	-0,116	-0,111
-178,256	-29,140	0,124	-0,050
-177,242	-161,971	0,125	-0,004
-176,227	800,000	0,024	-0,059
-175,212	800,000	0,010	-0,026
-174,198	800,000	0,036	0,097
-173,183	448,257	0,026	-0,041
-172,169	-78,602	0,008	-0,002
-171,154	37,242	0,063	-0,040
-170,139	-12,355	-0,059	0,027
-169,125	-6,976	0,023	0,011
-168,110	-200,000	-0,042	0,221
-167,096	800,000	-0,028	-0,060
-166,081	182,194	0,120	0,126
-165,066	214,252	-0,028	-0,031
-164,052	-136,902	-0,043	0,003
-163,037	-65,298	-0,078	0,022
-162,023	800,000	0,049	0,122
-161,008	-24,275	-0,118	0,050
-159,993	800,000	-0,010	0,026
-158,979	259,274	0,062	-0,076
-157,964	30,346	-0,059	0,036
-156,950	301,343	-0,069	-0,090
-155,935	-200,000	0,034	0,112
-154,920	-1,282	0,114	0,057
-153,906	-1,680	0,112	0,056
-152,891	-200,000	-0,002	0,012
-151,877	-12,311	-0,076	-0,035
-150,862	-200,000	0,018	-0,102
-149,847	-200,000	-0,006	0,032
-148,833	-22,794	0,191	-0,082
-147,818	6,432	-0,059	0,031
-146,804	-200,000	-0,044	0,144
-145,789	-200,000	0,013	0,054
-144,775	-132,890	-0,048	-0,004
-143,760	800,000	0,021	-0,061
-142,745	88,700	-0,042	0,033
-141,731	-127,009	-0,096	-0,010
-140,716	-128,455	0,153	0,015
-139,702	-200,000	0,014	0,051
-138,687	-119,683	0,148	-0,018
-137,672	129,183	-0,013	-0,012
-136,658	800,000	0,029	0,067
-135,643	189,493	0,074	0,079
-134,629	200,374	0,049	-0,053
-133,614	15,251	-0,079	-0,044
-132,599	339,350	0,079	-0,109
-131,585	-200,000	-0,009	0,065
-130,570	310,736	-0,039	-0,052
-129,556	-113,871	-0,063	-0,009
-128,541	-51,221	0,107	0,035
-127,526	800,000	-0,018	-0,037
-126,512	794,517	0,027	0,053
-125,497	-114,884	-0,106	0,014
-124,483	-52,337	0,083	-0,027
-123,468	107,581	-0,079	-0,067
-122,453	-109,847	0,133	-0,020
-121,439	220,769	-0,008	0,010
-120,424	-133,615	0,042	0,004
-119,410	261,338	0,082	0,101
