DTS Sentinel unit serial number:	SN410029Multiplexer serial number:	ORYXHardware model number:	OX2-SRSoftware version number:	ORYX F/W v4,00 Oryx Data Collector v3.7.2.0data status	okinstallation	B6 Nyhavnadifferential loss correction	single-endedforward channel	channel 2reverse channel	N/Adate	2023/12/11time	05:05:08forward acquisition time	300,00reverse acquisition time	0,00gamma	499,1914k internal	0,3126k external	0,3126temperature offset calibration	1,0000default loss term (dB/km)	0,3820temperature slope calibration	1,0000multiplexer offset coefficient	1,0000multiplexer slope coefficient	1,0000fibre end	0,00T internal ref (°C)	20,17T ext. ref 1 (°C)	3,12T ext. ref 2 (°C)	3,11length (m)	temperature (°C)	Stokes	anti-Stokes-744,400	-110,101	0,110	0,017
-743,385	-165,823	-0,309	-0,010
-742,371	-200,000	-0,006	0,088
-741,356	-129,633	-0,329	0,033
-740,342	687,619	0,001	-0,002
-739,327	-73,118	-0,191	0,052
-738,312	293,477	0,052	0,071
-737,298	-184,778	-0,241	-0,003
-736,283	800,000	0,078	-0,168
-735,269	26,651	-0,106	0,066
-734,254	-200,000	0,003	-0,028
-733,239	-86,263	-0,527	-0,120
-732,225	-22,209	0,187	-0,084
-731,210	-200,000	0,006	0,119
-730,196	684,598	0,028	-0,054
-729,181	92,641	-0,052	0,044
-728,167	485,060	0,064	0,110
-727,152	800,000	-0,063	-0,146
-726,137	-200,000	-0,002	-0,072
-725,123	-11,255	-0,078	-0,038
-724,108	-200,000	-0,036	-0,153
-723,094	16,523	-0,076	-0,045
-722,079	365,826	-0,066	0,099
-721,064	-200,000	-0,019	0,163
-720,050	166,958	0,033	0,035
-719,035	60,897	0,068	-0,050
-718,021	800,000	-0,052	-0,121
-717,006	-200,000	-0,001	0,017
-715,991	-33,945	-0,116	-0,047
-714,977	-30,184	-0,116	0,049
-713,962	800,000	-0,072	0,156
-712,948	445,988	0,033	0,054
-711,933	-200,000	0,019	0,083
-710,918	-200,000	-0,005	0,051
-709,904	196,490	-0,054	-0,061
-708,889	296,166	-0,090	-0,123
-707,875	-16,633	0,056	-0,026
-706,860	-200,000	-0,004	0,028
-705,845	33,062	0,078	0,050
-704,831	-200,000	-0,000	0,154
-703,816	142,889	0,063	-0,063
-702,802	800,000	-0,024	0,055
-701,787	800,000	-0,028	-0,068
-700,772	-6,013	-0,169	0,086
-699,758	615,197	-0,055	0,103
-698,743	-200,000	0,025	0,152
-697,729	800,000	-0,019	-0,046
-696,714	72,526	-0,082	-0,063
-695,699	0,744	-0,144	0,076
-694,685	-4,291	-0,027	-0,014
-693,670	-192,962	-0,091	-0,001
-692,656	-200,000	0,000	-0,037
-691,641	11,851	-0,069	0,039
-690,627	-57,356	0,149	0,048
-689,612	800,000	0,034	0,090
-688,597	-16,348	-0,167	-0,078
-687,583	16,364	-0,105	-0,061
-686,568	-9,503	0,029	0,014
-685,554	-98,387	-0,175	-0,033
-684,539	66,516	0,079	-0,060
-683,524	475,047	-0,034	0,057
-682,510	130,183	-0,061	0,058
-681,495	-93,645	-0,120	-0,024
-680,481	-53,758	-0,098	-0,033
-679,466	-200,000	-0,004	0,069
-678,451	51,076	-0,055	0,039
-677,437	316,526	0,082	0,115
-676,422	427,111	-0,090	0,145
-675,408	407,986	-0,043	-0,067
-674,393	-13,220	0,027	-0,013
-673,378	800,000	-0,061	-0,128
-672,364	800,000	-0,019	-0,060
-671,349	-141,450	-0,142	-0,011
-670,335	-91,066	0,143	0,030
-669,320	482,322	-0,033	-0,056
-668,305	-200,000	0,039	0,173
-667,291	254,225	-0,080	0,102
-666,276	-176,285	-0,080	0,002
-665,262	10,622	-0,132	-0,075
-664,247	-68,341	-0,096	0,028
-663,232	-73,154	-0,124	-0,034
-662,218	246,675	0,026	-0,033
-661,203	800,000	-0,086	0,181
-660,189	800,000	-0,050	-0,109
-659,174	119,510	-0,045	-0,041
-658,159	-200,000	0,001	-0,153
-657,145	237,436	-0,058	-0,072
-656,130	-200,000	-0,010	0,070
-655,116	800,000	-0,015	-0,044
-654,101	-124,372	0,076	-0,009
-653,086	-114,995	-0,142	-0,020
-652,072	81,751	-0,183	-0,147
-651,057	193,059	-0,055	-0,062
-650,043	-64,024	-0,114	-0,034
-649,028	-100,163	0,038	0,007
-648,014	-72,341	0,065	0,018
-646,999	-58,567	-0,092	0,029
-645,984	-67,539	-0,059	0,017
-644,970	681,565	0,071	-0,138
-643,955	-162,785	-0,133	-0,005
-642,941	-30,386	-0,079	0,033
-641,926	10,253	-0,076	0,043
-640,911	14,320	-0,052	-0,030
-639,897	678,256	0,033	0,063
-638,882	-113,567	0,021	0,003
-637,868	-168,482	0,105	0,003
-636,853	800,000	-0,041	-0,107
-635,838	800,000	-0,105	-0,238
-634,824	800,000	-0,076	-0,205
-633,809	2,874	-0,099	-0,053
-632,795	203,556	0,046	0,053
-631,780	713,702	-0,004	0,008
-630,765	25,454	0,029	-0,018
-629,751	-43,820	0,087	-0,032
-628,736	-200,000	-0,017	-0,106
-627,722	513,236	-0,040	0,070
-626,707	-200,000	-0,010	0,047
-625,692	391,425	-0,052	0,080
-624,678	800,000	0,052	-0,129
-623,663	-200,000	0,024	-0,084
-622,649	-36,455	-0,056	0,022
-621,634	-200,000	0,012	-0,196
-620,619	61,193	-0,086	-0,063
-619,605	184,205	-0,053	-0,058
-618,590	138,458	-0,026	0,025
-617,576	-128,219	0,069	0,007
-616,561	-200,000	0,008	-0,088
-615,546	-200,000	-0,030	-0,116
-614,532	-200,000	0,020	-0,161
-613,517	-200,000	0,039	-0,132
-612,503	153,861	-0,089	-0,091
-611,488	294,735	0,043	0,058
-610,474	-39,202	-0,126	0,049
-609,459	-85,844	0,116	0,026
-608,444	-200,000	-0,003	0,015
-607,430	8,328	-0,086	0,048
-606,415	39,239	-0,040	-0,027
-605,401	-53,412	0,030	-0,010
-604,386	127,052	-0,012	0,011
-603,371	-22,509	0,042	-0,019
-602,357	-146,988	-0,063	-0,004
-601,342	104,438	-0,056	-0,049
-600,328	314,173	-0,079	-0,110
-599,313	-13,908	-0,131	-0,063
-598,298	-200,000	-0,025	-0,098
-597,284	-68,142	0,113	0,032
-596,269	562,613	0,045	0,081
-595,255	573,792	-0,094	0,171
-594,240	-148,341	-0,143	0,009
-593,225	68,043	0,096	0,073
-592,211	742,405	0,067	0,133
-591,196	-200,000	0,001	-0,042
-590,182	800,000	-0,029	0,083
-589,167	101,981	0,049	0,043
-588,152	-88,023	-0,052	-0,011
-587,138	-69,252	-0,091	-0,026
-586,123	323,933	-0,050	-0,071
-585,109	800,000	0,036	0,106
-584,094	800,000	-0,016	-0,038
-583,079	-200,000	0,019	0,167
-582,065	-200,000	-0,009	0,059
-581,050	-83,610	0,052	-0,012
-580,036	-130,320	-0,018	-0,002
-579,021	-21,641	0,068	0,030
-578,006	-45,654	-0,120	-0,044
-576,992	526,153	-0,062	0,108
-575,977	-143,560	0,118	0,008
-574,963	-200,000	0,006	0,040
-573,948	225,250	0,104	-0,125
-572,934	388,498	-0,065	-0,099
-571,919	270,214	0,050	-0,065
-570,904	-200,000	-0,017	-0,058
-569,890	211,889	0,093	-0,108
-568,875	53,712	-0,125	0,089
-567,861	748,161	0,055	-0,110
-566,846	548,595	0,091	0,161
-565,831	-36,949	-0,101	-0,040
-564,817	249,394	0,086	0,108
-563,802	15,676	0,143	-0,083
-562,788	86,977	0,041	0,033
-561,773	-200,000	0,002	-0,129
-560,758	122,384	-0,007	-0,006
-559,744	-152,287	0,048	-0,003
-558,729	-200,000	0,006	-0,049
-557,715	132,084	-0,103	0,098
-556,700	502,129	0,058	0,100
-555,685	-200,000	0,032	0,156
-554,671	-48,957	-0,021	0,007
-553,656	-200,000	-0,013	0,141
-552,642	315,609	-0,035	0,048
-551,627	-200,000	-0,003	0,051
-550,612	484,433	0,022	0,037
-549,598	159,556	-0,028	0,028
-548,583	-46,736	-0,163	0,059
-547,569	-200,000	-0,020	0,076
-546,554	-25,505	0,109	-0,047
-545,539	26,672	0,097	0,060
-544,525	-200,000	-0,024	-0,078
-543,510	-56,759	0,018	0,006
-542,496	54,321	0,120	0,085
-541,481	121,799	-0,008	-0,007
-540,466	-200,000	0,008	-0,094
-539,452	-200,000	-0,021	-0,084
-538,437	-70,834	0,048	0,013
-537,423	-200,000	0,009	0,068
-536,408	-67,512	-0,117	-0,034
-535,393	-200,000	-0,014	-0,058
-534,379	800,000	0,048	-0,120
-533,364	125,156	-0,070	0,065
-532,350	82,700	0,055	0,044
-531,335	541,248	-0,039	-0,068
-530,321	54,996	-0,027	-0,019
-529,306	-200,000	-0,011	-0,085
-528,291	-52,867	-0,195	-0,066
-527,277	302,557	-0,020	-0,027
-526,262	-100,656	0,022	-0,004
-525,248	395,376	0,059	0,091
-524,233	-200,000	0,008	-0,095
-523,218	93,961	-0,034	-0,029
-522,204	-200,000	0,045	0,166
-521,189	642,902	0,032	0,060
-520,175	160,001	0,054	0,055
-519,160	-200,000	0,009	-0,115
-518,145	-5,858	0,119	0,060
-517,131	620,419	0,035	-0,064
-516,116	329,211	0,109	0,155
-515,102	-200,000	0,000	0,084
-514,087	173,002	0,049	-0,053
-513,072	-200,000	0,002	-0,080
-512,058	-14,766	-0,191	-0,090
-511,043	-75,780	0,161	0,042
-510,029	800,000	0,008	-0,018
-509,014	354,903	-0,053	0,078
-507,999	42,056	-0,068	-0,045
-506,985	442,453	-0,079	-0,128
-505,970	-200,000	-0,032	-0,113
-504,956	800,000	0,021	-0,059
-503,941	141,566	-0,113	-0,111
-502,926	-200,000	0,027	0,123
-501,912	-200,000	0,027	0,206
-500,897	-124,328	-0,055	-0,006
-499,883	800,000	-0,060	-0,143
-498,868	800,000	-0,062	-0,145
-497,853	-74,917	-0,067	-0,018
-496,839	13,866	0,078	0,045
-495,824	608,760	-0,009	0,016
-494,810	-200,000	0,019	-0,066
-493,795	41,439	-0,029	-0,020
-492,781	50,110	0,025	0,017
-491,766	157,338	0,018	-0,018
-490,751	796,874	-0,017	0,034
-489,737	-49,546	-0,092	0,032
-488,722	-120,416	0,041	-0,005
-487,708	800,000	-0,020	0,055
-486,693	574,641	0,043	0,077
-485,678	0,754	0,101	0,053
-484,664	-200,000	0,003	-0,133
-483,649	-9,372	-0,061	-0,030
-482,635	-38,574	0,066	0,026
-481,620	-152,398	0,085	-0,004
-480,605	800,000	0,022	0,067
-479,591	-172,921	0,165	0,004
-478,576	435,605	0,041	0,065
-477,562	-200,000	-0,001	-0,032
-476,547	-147,269	-0,160	0,010
-475,532	-4,960	-0,169	-0,085
-474,518	-27,793	-0,081	-0,034
-473,503	-200,000	-0,002	0,025
-472,489	-200,000	0,036	-0,150
-471,474	207,886	-0,084	0,097
-470,459	-3,198	-0,072	-0,037
-469,445	-87,586	-0,101	-0,022
-468,430	2,458	-0,019	-0,010
-467,416	-158,667	-0,076	0,003
-466,401	-147,899	0,103	0,006
-465,386	560,795	-0,032	0,057
-464,372	-93,973	-0,128	-0,026
-463,357	329,384	-0,093	-0,133
-462,343	-105,736	-0,089	0,015
-461,328	-200,000	-0,007	0,127
-460,313	-200,000	0,002	-0,065
-459,299	25,944	0,046	-0,028
-458,284	-57,072	-0,055	0,018
-457,270	-200,000	0,001	-0,116
-456,255	92,926	-0,056	0,047
-455,241	144,310	0,094	-0,093
-454,226	-200,000	0,031	-0,111
-453,211	800,000	0,042	-0,105
-452,197	-73,776	-0,111	0,030
-451,182	-200,000	0,018	0,081
-450,168	-31,379	0,034	-0,014
-449,153	36,358	-0,064	-0,041
-448,138	9,723	0,084	0,047
-447,124	-13,025	-0,173	-0,082
-446,109	-65,953	0,123	0,036
-445,095	-190,568	0,030	0,000
-444,080	153,731	0,124	0,125
-443,065	488,561	-0,077	0,131
-442,051	-137,318	-0,061	0,005
-441,036	600,279	0,046	-0,084
-440,022	635,462	-0,116	-0,218
-439,007	24,703	0,136	-0,082
-437,992	120,185	0,089	0,081
-436,978	-200,000	0,011	0,103
-435,963	610,970	-0,073	0,135
-434,949	-200,000	-0,008	0,058
-433,934	-23,245	-0,087	-0,038
-432,919	-200,000	-0,042	-0,168
-431,905	-200,000	-0,006	-0,029
-430,890	82,546	0,100	-0,080
-429,876	-162,520	0,099	0,004
-428,861	448,409	0,033	-0,054
-427,846	-200,000	-0,011	-0,090
-426,832	237,079	-0,061	-0,075
-425,817	258,871	-0,078	-0,099
-424,803	-55,318	-0,071	-0,023
-423,788	-56,866	0,158	-0,051
-422,773	585,899	-0,028	0,050
-421,759	-53,266	0,114	-0,038
-420,744	563,562	-0,008	-0,015
-419,730	800,000	0,029	0,067
-418,715	86,586	-0,115	-0,094
-417,701	48,855	0,059	0,041
-416,686	-146,412	0,098	0,006
-415,671	-200,000	0,004	-0,016
-414,657	15,542	-0,099	-0,057
-413,642	-59,850	0,056	-0,018
-412,628	108,632	-0,056	-0,049
-411,613	234,515	-0,032	0,038
-410,598	103,104	-0,050	-0,043
-409,584	185,972	-0,137	0,150
-408,569	800,000	0,014	-0,028
-407,555	-86,443	-0,036	-0,008
-406,540	122,732	0,070	0,065
-405,525	800,000	0,040	-0,109
-404,511	219,484	-0,080	0,094
-403,496	800,000	0,031	0,086
-402,482	-96,137	-0,195	0,038
-401,467	368,685	0,033	0,050
-400,452	663,257	-0,025	0,047
-399,438	-6,778	0,081	-0,040
-398,423	248,807	0,061	0,076
-397,409	346,453	-0,071	-0,104
-396,394	-200,000	0,011	-0,069
-395,379	-200,000	-0,007	0,045
-394,365	2,614	0,087	-0,046
-393,350	-31,648	-0,034	0,014
-392,336	-200,000	-0,008	-0,050
-391,321	-200,000	-0,007	0,036
-390,306	800,000	-0,046	-0,147
-389,292	-200,000	0,016	-0,157
-388,277	-200,000	0,025	0,099
-387,263	67,141	0,034	0,025
-386,248	-64,033	0,091	0,027
-385,233	-200,000	-0,010	-0,033
-384,219	119,545	0,092	0,084
-383,204	800,000	0,015	-0,041
-382,190	-200,000	0,022	0,102
-381,175	800,000	0,027	0,055
-380,160	-200,000	-0,005	0,044
-379,146	87,039	0,089	0,072
-378,131	-200,000	0,022	0,152
-377,117	-132,196	0,112	-0,011
-376,102	234,702	-0,027	-0,033
-375,088	-33,050	-0,161	-0,065
-374,073	312,721	-0,035	-0,048
-373,058	647,465	-0,051	0,096
-372,044	22,695	0,082	0,049
-371,029	-200,000	-0,009	-0,085
-370,015	291,321	-0,038	0,050
-369,000	-9,781	-0,107	-0,052
-367,985	186,017	0,043	-0,047
-366,971	237,790	0,081	-0,099
-365,956	-200,000	-0,021	-0,154
-364,942	-40,470	0,057	0,022
-363,927	800,000	0,016	0,044
-362,912	443,410	0,009	0,015
-361,898	155,163	0,027	-0,027
-360,883	800,000	-0,039	-0,102
-359,869	-200,000	0,009	-0,056
-358,854	264,080	-0,078	0,100
-357,839	-200,000	0,011	0,103
-356,825	118,001	0,175	0,158
-355,810	-119,981	-0,089	0,011
-354,796	412,563	0,071	-0,111
-353,781	56,578	0,105	-0,075
-352,766	-109,236	0,042	0,007
-351,752	-31,934	-0,097	0,040
-350,737	386,487	-0,082	0,124
-349,723	-25,281	-0,055	-0,024
-348,708	-79,876	0,101	-0,025
-347,693	142,646	-0,023	0,023
-346,679	-200,000	-0,002	-0,059
-345,664	503,809	0,082	-0,140
-344,650	136,543	-0,059	-0,057
-343,635	-152,230	0,217	-0,011
-342,620	192,363	-0,109	0,121
-341,606	800,000	0,018	-0,039
-340,591	539,716	0,026	0,046
-339,577	442,169	-0,016	-0,026
-338,562	-26,908	-0,100	0,043
-337,548	397,336	-0,022	-0,034
-336,533	-138,629	0,229	0,018
-335,518	0,455	0,073	0,038
-334,504	564,414	-0,061	0,110
-333,489	206,084	0,089	-0,101
-332,475	13,613	-0,038	-0,022
-331,460	-95,719	-0,118	-0,023
-330,445	139,371	-0,066	-0,064
-329,431	-200,000	0,011	-0,036
-328,416	358,153	-0,025	0,036
-327,402	-78,888	-0,106	0,026
-326,387	-200,000	0,027	-0,124
-325,372	515,070	0,040	-0,068
-324,358	-200,000	0,013	0,075
-323,343	434,314	-0,069	-0,110
-322,329	-130,907	0,178	0,017
-321,314	331,192	0,103	0,145
-320,299	800,000	-0,034	0,078
-319,285	800,000	0,023	-0,070
-318,270	-107,839	-0,043	-0,007
-317,256	-200,000	-0,030	-0,097
-316,241	-200,000	0,000	0,010
-315,226	-200,000	-0,008	-0,039
-314,212	-56,122	0,095	0,031
-313,197	-200,000	-0,013	0,162
-312,183	-25,732	-0,055	0,023
-311,168	-200,000	-0,011	0,052
-310,153	682,260	-0,058	-0,111
-309,139	438,464	-0,037	-0,060
-308,124	-32,229	0,073	0,030
-307,110	-134,662	0,066	0,006
-306,095	-200,000	-0,023	0,143
-305,080	-200,000	-0,025	-0,089
-304,066	800,000	0,031	-0,084
-303,051	-200,000	-0,001	-0,093
-302,037	-163,435	-0,030	-0,001
-301,022	418,811	-0,011	0,017
-300,008	-200,000	-0,003	0,017
-298,993	-200,000	-0,012	-0,145
-297,978	-96,872	-0,028	0,005
-296,964	-124,662	-0,110	0,012
-295,949	-200,000	0,000	0,010
-294,935	113,750	-0,071	0,063
-293,920	272,535	0,064	0,082
-292,905	-66,035	-0,027	0,008
-291,891	-135,564	0,125	0,011
-290,876	226,889	0,047	-0,056
-289,862	184,108	0,008	0,009
-288,847	-25,959	-0,062	-0,027
-287,832	800,000	-0,056	0,142
-286,818	172,300	-0,019	0,020
-285,803	-200,000	-0,029	0,151
-284,789	311,572	0,074	0,101
-283,774	-200,000	-0,031	0,150
-282,759	-76,395	-0,030	-0,008
-281,745	-102,604	-0,138	0,024
-280,730	169,359	-0,030	-0,031
-279,716	196,422	-0,066	0,074
-278,701	258,945	0,038	0,048
-277,686	203,049	0,093	0,105
-276,672	-200,000	0,006	0,048
-275,657	283,994	0,071	-0,093
-274,643	209,996	0,072	-0,083
-273,628	-200,000	-0,020	-0,111
-272,613	-200,000	0,048	-0,156
-271,599	125,743	-0,037	-0,035
-270,584	-200,000	0,028	0,132
-269,570	800,000	-0,048	0,114
-268,555	78,710	0,111	0,087
-267,540	-200,000	0,013	0,133
-266,526	-200,000	-0,004	0,026
-265,511	576,620	0,054	-0,097
-264,497	228,503	0,037	-0,044
-263,482	-49,699	0,028	-0,010
-262,467	330,253	0,063	0,089
-261,453	-94,527	0,045	-0,009
-260,438	-149,657	-0,090	0,005
-259,424	-200,000	0,043	-0,167
-258,409	-64,453	-0,145	0,043
-257,395	168,301	-0,006	-0,007
-256,380	7,792	-0,088	-0,048
-255,365	-27,182	-0,067	0,028
-254,351	120,226	-0,057	0,052
-253,336	-200,000	-0,002	0,008
-252,322	800,000	-0,048	0,099
-251,307	1,961	-0,029	-0,015
-250,292	-200,000	0,036	0,139
-249,278	590,827	-0,025	-0,045
-248,263	800,000	-0,049	0,145
-247,249	-200,000	0,024	0,107
-246,234	-200,000	-0,004	-0,036
-245,219	-200,000	-0,003	-0,072
-244,205	210,979	0,096	0,110
-243,190	10,483	0,101	0,056
-242,176	-106,716	0,214	0,034
-241,161	-138,347	0,131	-0,010
-240,146	361,898	-0,022	-0,033
-239,132	82,073	-0,112	-0,088
-238,117	10,585	0,024	0,014
-237,103	800,000	0,050	-0,150
-236,088	-153,590	0,063	0,003
-235,073	33,742	0,167	0,106
-234,059	800,000	0,047	0,096
-233,044	-61,928	0,100	0,030
-232,030	-200,000	0,021	-0,170
-231,015	467,843	0,046	-0,076
-230,000	-200,000	0,000	-0,022
-228,986	-200,000	0,026	-0,124
-227,971	-92,271	-0,103	0,021
-226,957	-200,000	-0,005	-0,028
-225,942	-49,372	0,070	0,024
-224,927	-144,562	0,103	0,007
-223,913	86,273	-0,135	-0,109
-222,898	-200,000	0,004	0,103
-221,884	231,127	0,069	-0,083
-220,869	-158,340	0,048	0,002
-219,855	-200,000	0,019	0,140
-218,840	-200,000	0,001	0,007
-217,825	-142,093	-0,044	0,003
-216,811	800,000	0,020	-0,063
-215,796	550,309	-0,051	-0,090
-214,782	7,725	-0,105	-0,057
-213,767	-127,950	0,085	-0,009
-212,752	316,979	-0,048	0,066
-211,738	800,000	0,072	0,149
-210,723	73,783	0,067	0,051
-209,709	-200,000	-0,009	-0,074
-208,694	-17,614	-0,094	0,043
-207,679	13,783	0,150	0,085
-206,665	800,000	0,021	-0,052
-205,650	117,563	0,168	0,151
-204,636	-168,848	-0,054	-0,001
-203,621	-200,000	0,006	-0,051
-202,606	-200,000	0,031	0,220
-201,592	4,681	0,130	-0,069
-200,577	120,882	0,016	-0,014
-199,563	800,000	-0,036	-0,112
-198,548	800,000	0,017	0,035
-197,533	45,254	0,094	0,063
-196,519	58,396	-0,095	0,068
-195,504	252,183	-0,011	-0,013
-194,490	39,892	-0,087	-0,057
-193,475	13,387	-0,107	0,061
-192,460	-59,300	0,117	0,037
-191,446	394,974	-0,029	-0,044
-190,431	3,576	-0,096	-0,051
-189,417	-200,000	0,006	0,041
-188,402	-191,610	-0,068	-0,000
-187,387	144,900	-0,046	-0,044
-186,373	-200,000	-0,006	-0,043
-185,358	-6,474	-0,004	0,002
-184,344	-200,000	0,024	0,111
-183,329	-25,676	0,062	0,026
-182,315	-200,000	0,012	0,078
-181,300	-68,505	0,082	-0,023
-180,285	-200,000	0,021	-0,151
-179,271	66,323	-0,038	-0,028
-178,256	-136,278	-0,046	-0,004
-177,242	337,226	-0,083	0,117
-176,227	315,809	0,065	0,090
-175,212	-200,000	0,002	-0,024
-174,198	270,156	-0,070	0,090
-173,183	-45,729	0,078	0,028
-172,169	-200,000	0,028	0,141
-171,154	44,892	-0,060	0,040
-170,139	-51,367	-0,073	0,025
-169,125	-200,000	0,002	0,040
-168,110	15,987	-0,051	0,029
-167,096	-149,095	-0,092	-0,005
-166,081	800,000	0,041	-0,126
-165,066	-200,000	-0,010	-0,079
-164,052	-200,000	0,003	0,073
-163,037	108,088	0,045	-0,039
-162,023	-200,000	0,020	0,115
-161,008	494,000	0,095	0,159
-159,993	-200,000	0,002	0,135
-158,979	545,504	0,027	-0,047
-157,964	-31,706	0,028	-0,011
-156,950	-200,000	0,010	0,048
-155,935	-36,729	0,046	0,018
-154,920	800,000	0,031	-0,091
-153,906	172,333	-0,074	0,077
-152,891	-200,000	-0,038	0,158
-151,877	19,209	-0,077	0,045
-150,862	-7,769	-0,114	-0,056
-149,847	-125,571	-0,120	0,013
-148,833	-59,693	-0,008	0,002
-147,818	128,382	0,179	0,165
-146,804	400,494	0,043	0,067
-145,789	237,367	0,050	0,061
-144,775	-200,000	-0,037	0,232
-143,760	-200,000	0,028	0,210
-142,745	-89,712	-0,088	-0,019
-141,731	-68,163	0,113	-0,032
-140,716	-200,000	0,002	-0,019
-139,702	-200,000	0,018	0,097
-138,687	8,466	-0,180	-0,098
-137,672	178,229	-0,091	0,096
-136,658	-200,000	-0,005	-0,032
-135,643	-135,523	-0,094	0,008
-134,629	94,899	-0,104	0,086
-133,614	-200,000	0,004	-0,041
-132,599	239,147	0,037	0,045
-131,585	93,681	-0,050	0,041
-130,570	-200,000	0,019	-0,076
-129,556	800,000	-0,029	-0,063
-128,541	648,722	0,023	-0,043
-127,526	-200,000	-0,008	0,034
-126,512	-200,000	0,018	0,098
-125,497	-25,090	0,102	0,044
-124,483	65,537	-0,009	-0,007
-123,468	800,000	-0,046	-0,139
-122,453	-134,469	-0,229	0,020
-121,439	42,066	-0,095	0,063
-120,424	39,143	0,091	-0,059
