DTS Sentinel unit serial number:	SN410029Multiplexer serial number:	ORYXHardware model number:	OX2-SRSoftware version number:	ORYX F/W v4,00 Oryx Data Collector v3.7.2.0data status	okinstallation	B6 Nyhavnadifferential loss correction	single-endedforward channel	channel 2reverse channel	N/Adate	2023/12/08time	19:40:08forward acquisition time	300,00reverse acquisition time	0,00gamma	499,1914k internal	0,3158k external	0,3158temperature offset calibration	1,0000default loss term (dB/km)	0,3820temperature slope calibration	1,0000multiplexer offset coefficient	1,0000multiplexer slope coefficient	1,0000fibre end	0,00T internal ref (°C)	15,24T ext. ref 1 (°C)	-1,43T ext. ref 2 (°C)	-1,43length (m)	temperature (°C)	Stokes	anti-Stokes-744,400	480,157	-0,018	0,030
-743,385	-47,948	-0,195	-0,069
-742,371	322,100	0,060	0,084
-741,356	-198,031	-0,425	0,002
-740,342	-79,467	0,161	0,040
-739,327	53,786	-0,291	-0,206
-738,312	-200,000	-0,004	0,133
-737,298	-162,973	-0,386	-0,014
-736,283	-139,647	0,151	-0,012
-735,269	-157,218	-0,254	-0,011
-734,254	-12,367	0,109	0,052
-733,239	-74,004	-0,553	-0,147
-732,225	-17,568	0,158	0,073
-731,210	528,856	0,009	-0,015
-730,196	-66,194	0,073	0,021
-729,181	205,549	-0,106	0,122
-728,167	-200,000	-0,026	-0,099
-727,152	-52,697	-0,168	0,057
-726,137	123,537	0,015	-0,014
-725,123	410,526	-0,092	-0,144
-724,108	223,159	0,043	-0,051
-723,094	-200,000	-0,003	-0,064
-722,079	76,491	-0,159	-0,124
-721,064	800,000	-0,019	0,047
-720,050	634,200	0,008	0,015
-719,035	-189,899	0,085	-0,001
-718,021	-165,425	-0,213	-0,007
-717,006	-200,000	-0,014	-0,067
-715,991	-200,000	-0,025	-0,120
-714,977	-2,893	-0,057	-0,029
-713,962	58,686	-0,085	0,061
-712,948	-200,000	-0,007	0,090
-711,933	-200,000	-0,096	0,000
-710,918	3,259	0,079	-0,042
-709,904	282,353	0,052	0,069
-708,889	16,211	0,019	0,011
-707,875	-44,787	0,044	-0,016
-706,860	-107,919	-0,110	0,017
-705,845	-165,721	-0,096	0,003
-704,831	800,000	0,042	-0,089
-703,816	-12,038	0,087	-0,042
-702,802	-200,000	0,013	0,043
-701,787	-54,060	-0,107	-0,036
-700,772	-102,869	0,131	0,023
-699,758	126,778	0,045	-0,042
-698,743	-49,737	0,028	-0,010
-697,729	-16,543	-0,156	0,072
-696,714	34,018	-0,051	0,033
-695,699	800,000	0,029	0,090
-694,685	-55,888	-0,028	0,009
-693,670	-43,024	-0,118	-0,044
-692,656	10,769	-0,043	0,024
-691,641	524,476	0,077	-0,134
-690,627	-62,914	-0,128	-0,039
-689,612	454,748	-0,019	0,032
-688,597	194,470	0,040	0,045
-687,583	800,000	0,023	-0,065
-686,568	-107,459	-0,170	-0,027
-685,554	189,877	-0,075	0,083
-684,539	-60,531	0,083	0,026
-683,524	-173,959	0,057	-0,001
-682,510	-129,034	-0,175	-0,018
-681,495	800,000	0,060	-0,146
-680,481	54,323	-0,057	-0,041
-679,466	800,000	-0,033	-0,070
-678,451	245,544	-0,058	-0,071
-677,437	543,583	-0,072	-0,128
-676,422	263,993	0,047	0,060
-675,408	507,102	-0,022	0,037
-674,393	800,000	-0,043	0,099
-673,378	19,999	-0,078	0,046
-672,364	800,000	-0,023	0,055
-671,349	-72,567	0,109	0,029
-670,335	-112,393	-0,239	0,035
-669,320	-112,259	0,107	-0,016
-668,305	-35,989	-0,105	-0,042
-667,291	232,245	-0,035	0,042
-666,276	-74,329	-0,049	0,013
-665,262	-200,000	-0,005	0,069
-664,247	413,951	-0,066	0,103
-663,232	-2,466	-0,104	0,054
-662,218	-200,000	0,011	-0,089
-661,203	-6,066	0,126	-0,063
-660,189	106,608	-0,084	0,073
-659,174	-175,942	-0,092	-0,002
-658,159	-200,000	0,004	-0,091
-657,145	800,000	0,013	0,039
-656,130	139,343	-0,071	0,069
-655,116	-200,000	0,013	0,059
-654,101	-17,870	0,216	-0,099
-653,086	-40,033	-0,053	-0,020
-652,072	322,122	0,029	-0,040
-651,057	800,000	0,028	-0,074
-650,043	-200,000	0,070	-0,246
-649,028	3,298	0,188	-0,100
-648,014	-200,000	-0,019	0,071
-646,999	65,877	-0,078	-0,058
-645,984	356,179	0,069	0,101
-644,970	800,000	0,037	-0,077
-643,955	800,000	-0,011	-0,026
-642,941	-160,250	-0,055	0,002
-641,926	46,936	0,015	-0,011
-640,911	-200,000	-0,042	0,146
-639,897	-137,007	0,132	-0,011
-638,882	188,607	-0,101	-0,111
-637,868	414,417	-0,123	-0,193
-636,853	-64,052	-0,071	-0,021
-635,838	800,000	-0,068	-0,141
-634,824	-200,000	0,002	-0,149
-633,809	21,979	0,053	-0,031
-632,795	392,898	0,119	0,182
-631,780	-200,000	-0,021	0,109
-630,765	-151,292	0,046	0,002
-629,751	-16,045	0,038	0,018
-628,736	-40,887	0,086	0,032
-627,722	-165,934	0,082	-0,003
-626,707	800,000	-0,047	-0,116
-625,692	800,000	-0,032	-0,070
-624,678	-200,000	0,012	0,089
-623,663	227,801	-0,079	0,094
-622,649	226,082	-0,045	0,054
-621,634	-200,000	0,082	-0,000
-620,619	-200,000	0,001	-0,090
-619,605	92,494	-0,041	0,034
-618,590	29,132	-0,002	0,001
-617,576	330,238	0,076	0,108
-616,561	-200,000	-0,003	0,024
-615,546	-200,000	0,025	0,139
-614,532	255,161	-0,058	-0,073
-613,517	800,000	-0,065	0,137
-612,503	-200,000	-0,012	-0,055
-611,488	139,855	0,080	-0,077
-610,474	385,032	-0,057	-0,086
-609,459	-79,538	-0,089	-0,022
-608,444	290,504	-0,064	-0,086
-607,430	295,724	-0,116	-0,156
-606,415	-200,000	-0,016	-0,101
-605,401	-26,429	0,033	-0,014
-604,386	539,047	-0,086	-0,151
-603,371	-57,934	0,095	-0,030
-602,357	-159,237	0,217	-0,009
-601,342	-20,709	-0,036	0,016
-600,328	92,905	0,091	-0,075
-599,313	178,586	-0,032	-0,034
-598,298	-103,275	-0,090	-0,015
-597,284	711,453	-0,008	0,016
-596,269	-155,056	0,031	0,001
-595,255	616,167	-0,081	0,150
-594,240	-200,000	0,005	-0,025
-593,225	800,000	0,077	-0,160
-592,211	-200,000	-0,028	-0,142
-591,196	-200,000	-0,005	-0,066
-590,182	-52,472	-0,127	-0,043
-589,167	-200,000	0,003	-0,018
-588,152	-141,149	0,096	-0,007
-587,138	-200,000	-0,061	-0,198
-586,123	800,000	-0,048	-0,114
-585,109	413,133	0,110	-0,171
-584,094	323,316	0,036	-0,051
-583,079	-200,000	0,003	-0,129
-582,065	-149,977	-0,061	0,003
-581,050	-142,001	-0,016	0,001
-580,036	169,142	-0,071	-0,074
-579,021	-200,000	-0,009	-0,092
-578,006	149,334	0,068	-0,067
-576,992	-200,000	0,000	-0,024
-575,977	-200,000	0,003	0,041
-574,963	383,411	0,031	0,047
-573,948	-49,217	-0,085	-0,030
-572,934	-200,000	0,011	-0,151
-571,919	142,340	-0,048	0,047
-570,904	-36,631	-0,115	-0,045
-569,890	7,734	-0,101	0,055
-568,875	384,693	-0,061	0,093
-567,861	766,008	-0,053	0,105
-566,846	800,000	0,044	0,132
-565,831	-130,466	0,181	-0,018
-564,817	800,000	0,020	-0,061
-563,802	-141,611	-0,158	-0,011
-562,788	-173,653	0,057	-0,001
-561,773	539,772	0,084	0,147
-560,758	408,296	-0,063	0,098
-559,744	-43,323	0,055	0,020
-558,729	-79,432	0,051	0,012
-557,715	286,003	-0,104	0,138
-556,700	153,791	0,072	-0,073
-555,685	800,000	-0,025	-0,051
-554,671	-64,005	-0,044	0,013
-553,656	-29,828	0,037	-0,015
-552,642	456,517	0,031	0,050
-551,627	-104,335	-0,051	0,009
-550,612	116,923	0,013	-0,012
-549,598	-200,000	-0,019	-0,063
-548,583	-50,570	0,057	0,019
-547,569	-134,937	0,018	0,002
-546,554	163,925	0,052	0,053
-545,539	-156,683	-0,041	0,002
-544,525	424,986	0,017	-0,027
-543,510	668,328	-0,069	-0,132
-542,496	161,719	-0,061	-0,063
-541,481	-22,410	-0,063	-0,028
-540,466	-60,871	-0,017	-0,005
-539,452	312,994	0,049	-0,067
-538,437	186,950	0,102	0,111
-537,423	800,000	-0,019	0,059
-536,408	-72,550	-0,187	0,050
-535,393	41,890	-0,005	0,003
-534,379	-143,241	-0,024	0,002
-533,364	240,112	0,006	-0,007
-532,350	-200,000	0,016	0,092
-531,335	800,000	-0,021	-0,051
-530,321	459,562	-0,087	-0,141
-529,306	-200,000	0,010	-0,122
-528,291	-200,000	0,034	-0,208
-527,277	166,001	0,112	-0,116
-526,262	148,839	-0,064	0,063
-525,248	-200,000	0,014	0,062
-524,233	800,000	-0,029	0,068
-523,218	-200,000	0,005	0,198
-522,204	287,428	0,001	0,001
-521,189	-55,136	-0,057	-0,019
-520,175	73,218	0,119	-0,091
-519,160	-200,000	-0,012	-0,045
-518,145	28,979	0,065	-0,040
-517,131	-13,296	0,066	-0,031
-516,116	266,203	0,101	0,129
-515,102	211,513	0,034	-0,039
-514,087	-200,000	-0,009	-0,084
-513,072	800,000	0,038	0,096
-512,058	-200,000	0,125	0,000
-511,043	-37,143	-0,148	-0,057
-510,029	-200,000	-0,012	-0,103
-509,014	-125,375	-0,075	-0,008
-507,999	-48,766	-0,058	0,020
-506,985	427,530	-0,028	-0,044
-505,970	-200,000	-0,020	0,074
-504,956	800,000	-0,031	0,079
-503,941	-120,433	0,122	0,015
-502,926	430,777	0,019	-0,030
-501,912	178,933	-0,032	-0,034
-500,897	-62,048	0,075	-0,023
-499,883	-194,413	0,044	-0,000
-498,868	800,000	0,023	-0,057
-497,853	-85,995	-0,082	0,018
-496,839	-111,095	-0,057	0,008
-495,824	241,279	-0,030	0,037
-494,810	800,000	0,032	0,098
-493,795	43,000	0,102	-0,068
-492,781	-200,000	-0,010	0,045
-491,766	800,000	-0,062	-0,148
-490,751	234,324	-0,074	0,089
-489,737	629,775	0,004	0,008
-488,722	18,615	0,103	-0,060
-487,708	-113,644	0,091	0,013
-486,693	-80,285	0,035	-0,008
-485,678	-94,549	0,086	-0,017
-484,664	10,432	-0,008	0,004
-483,649	40,931	-0,077	0,050
-482,635	800,000	-0,047	-0,128
-481,620	-200,000	0,020	-0,127
-480,605	-200,000	0,026	0,123
-479,591	-200,000	-0,010	-0,048
-478,576	51,490	-0,036	-0,025
-477,562	-102,570	-0,065	0,011
-476,547	127,113	-0,121	-0,112
-475,532	-43,078	-0,147	-0,054
-474,518	133,172	-0,024	-0,023
-473,503	800,000	0,031	-0,079
-472,489	800,000	0,068	0,182
-471,474	-200,000	0,011	0,057
-470,459	-39,185	-0,073	-0,028
-469,445	169,708	-0,078	-0,081
-468,430	58,322	-0,079	-0,057
-467,416	-200,000	0,016	-0,158
-466,401	-9,970	0,008	-0,004
-465,386	788,507	-0,055	0,111
-464,372	8,953	0,013	-0,007
-463,357	10,475	-0,090	0,050
-462,343	93,147	0,047	-0,038
-461,328	-171,794	-0,082	0,002
-460,313	800,000	0,049	-0,152
-459,299	-39,647	-0,075	0,029
-458,284	147,450	0,008	0,008
-457,270	-29,943	-0,134	0,055
-456,255	-200,000	0,004	0,162
-455,241	276,966	0,042	0,055
-454,226	-200,000	-0,015	0,073
-453,211	164,341	0,022	0,023
-452,197	120,353	0,029	0,026
-451,182	-128,392	-0,052	-0,005
-450,168	96,057	-0,145	0,121
-449,153	-113,814	-0,129	0,018
-448,138	-168,095	-0,199	-0,006
-447,124	800,000	0,013	-0,031
-446,109	44,064	0,123	0,082
-445,095	459,980	-0,032	0,052
-444,080	-200,000	-0,013	0,064
-443,065	-200,000	0,003	0,101
-442,051	-200,000	0,049	-0,159
-441,036	-200,000	-0,003	-0,041
-440,022	-73,807	-0,113	-0,030
-439,007	27,993	0,104	-0,064
-437,992	140,046	0,045	0,043
-436,978	-66,504	0,068	-0,019
-435,963	146,991	0,054	-0,053
-434,949	408,680	-0,051	-0,079
-433,934	284,815	-0,054	-0,071
-432,919	-200,000	0,002	-0,061
-431,905	-23,259	-0,089	0,039
-430,890	-200,000	0,002	-0,125
-429,876	288,315	0,022	0,029
-428,861	294,791	0,035	0,046
-427,846	-41,123	-0,078	0,029
-426,832	73,657	-0,037	0,029
-425,817	-200,000	-0,022	-0,112
-424,803	-200,000	0,014	0,104
-423,788	730,173	0,063	0,123
-422,773	800,000	0,010	0,021
-421,759	-92,623	-0,205	0,041
-420,744	49,128	0,089	0,061
-419,730	64,479	-0,059	-0,043
-418,715	800,000	0,015	0,037
-417,701	151,537	0,032	0,032
-416,686	-200,000	0,009	0,040
-415,671	244,789	0,097	0,119
-414,657	-147,918	0,022	-0,001
-413,642	415,996	0,026	-0,040
-412,628	-200,000	0,045	0,151
-411,613	470,070	0,052	0,085
-410,598	84,684	0,068	-0,054
-409,584	800,000	-0,038	-0,109
-408,569	-200,000	0,017	0,092
-407,555	-200,000	-0,005	-0,095
-406,540	-34,419	-0,051	0,020
-405,525	127,670	0,056	0,052
-404,511	-4,710	0,159	-0,080
-403,496	-105,218	0,083	0,014
-402,482	-70,585	-0,106	0,029
-401,467	-54,752	-0,023	-0,007
-400,452	52,583	0,099	0,069
-399,438	-41,922	0,056	0,021
-398,423	-136,092	-0,075	0,006
-397,409	-4,263	-0,050	-0,025
-396,394	800,000	0,023	-0,063
-395,379	800,000	0,056	0,127
-394,365	-99,112	-0,049	0,009
-393,350	169,078	0,192	0,200
-392,336	800,000	0,019	-0,054
-391,321	-200,000	0,000	-0,023
-390,306	-62,763	-0,128	0,038
-389,292	-200,000	0,036	0,132
-388,277	15,968	-0,057	0,033
-387,263	5,396	-0,174	0,093
-386,248	-50,319	0,169	0,058
-385,233	2,011	0,041	0,021
-384,219	-26,579	-0,070	-0,030
-383,204	-117,403	-0,089	-0,012
-382,190	52,824	0,082	-0,057
-381,175	-112,560	0,171	-0,025
-380,160	800,000	-0,027	-0,058
-379,146	-32,442	0,086	0,035
-378,131	-200,000	0,025	0,085
-377,117	-161,617	-0,115	0,004
-376,102	317,848	0,009	0,012
-375,088	-70,135	-0,108	-0,030
-374,073	-200,000	-0,010	0,057
-373,058	46,944	0,014	0,009
-372,044	74,327	-0,108	0,082
-371,029	-146,366	-0,114	-0,007
-370,015	356,385	0,084	-0,121
-369,000	-83,934	-0,064	0,015
-367,985	78,293	-0,077	-0,060
-366,971	-200,000	-0,005	-0,138
-365,956	-119,906	0,139	-0,017
-364,942	-40,542	0,099	0,037
-363,927	-200,000	-0,022	0,125
-362,912	800,000	-0,043	0,101
-361,898	-200,000	0,015	-0,056
-360,883	36,303	0,081	-0,052
-359,869	203,348	-0,124	-0,139
-358,854	202,886	0,039	0,044
-357,839	-58,078	0,145	0,046
-356,825	198,513	-0,060	-0,066
-355,810	261,880	-0,037	0,047
-354,796	33,387	0,060	0,038
-353,781	-200,000	-0,022	-0,076
-352,766	270,456	-0,066	0,084
-351,752	-87,849	-0,038	-0,008
-350,737	-55,125	0,081	-0,026
-349,723	-200,000	0,001	0,128
-348,708	-107,821	-0,137	-0,022
-347,693	-200,000	0,004	0,107
-346,679	-66,745	-0,089	0,025
-345,664	800,000	0,024	0,060
-344,650	-74,670	0,047	0,012
-343,635	-171,953	-0,147	-0,003
-342,620	-152,752	-0,144	0,007
-341,606	-200,000	0,000	0,054
-340,591	185,037	0,057	-0,061
-339,577	124,140	-0,072	0,066
-338,562	4,254	-0,082	0,044
-337,548	800,000	-0,078	0,214
-336,533	-200,000	0,003	0,022
-335,518	209,158	0,064	0,073
-334,504	-200,000	-0,035	0,128
-333,489	-126,290	-0,205	-0,022
-332,475	-200,000	0,008	0,064
-331,460	163,048	0,062	-0,064
-330,445	49,050	-0,047	-0,032
-329,431	800,000	-0,046	0,094
-328,416	90,800	0,200	0,162
-327,402	-200,000	0,010	0,041
-326,387	233,671	0,087	0,104
-325,372	-153,222	-0,133	-0,007
-324,358	627,415	0,114	-0,211
-323,343	477,472	-0,011	0,018
-322,329	-32,584	0,049	0,020
-321,314	-19,149	0,076	0,034
-320,299	-200,000	-0,009	0,069
-319,285	508,583	-0,093	0,157
-318,270	335,493	0,092	0,130
-317,256	75,481	0,084	-0,064
-316,241	-42,819	-0,067	0,024
-315,226	-171,447	-0,131	0,003
-314,212	7,900	-0,038	-0,021
-313,197	107,972	0,027	-0,023
-312,183	93,849	-0,098	0,081
-311,168	110,986	-0,079	0,069
-310,153	649,595	-0,051	0,094
-309,139	-88,759	-0,056	0,012
-308,124	303,373	0,085	0,115
-307,110	-155,742	0,202	-0,009
-306,095	-79,245	0,031	-0,008
-305,080	157,467	-0,095	0,096
-304,066	-200,000	0,020	0,091
-303,051	286,407	-0,115	-0,151
-302,037	-200,000	-0,007	0,058
-301,022	245,045	0,058	0,071
-300,008	800,000	-0,004	-0,011
-298,993	464,203	-0,074	0,120
-297,978	-200,000	-0,006	0,034
-296,964	-200,000	0,014	0,073
-295,949	10,205	0,127	-0,070
-294,935	106,952	-0,102	0,087
-293,920	-74,857	-0,081	0,021
-292,905	800,000	0,089	-0,198
-291,891	-43,574	0,103	-0,037
-290,876	223,484	0,071	0,084
-289,862	-28,622	-0,054	-0,023
-288,847	800,000	0,053	-0,115
-287,832	-200,000	0,024	-0,125
-286,818	768,702	0,055	0,109
-285,803	-200,000	-0,025	0,094
-284,789	-200,000	0,002	0,059
-283,774	800,000	-0,059	-0,164
-282,759	-42,609	-0,051	0,019
-281,745	-200,000	0,030	-0,122
-280,730	-84,740	0,040	-0,009
-279,716	398,031	0,039	-0,060
-278,701	-75,269	0,060	-0,015
-277,686	-23,588	0,175	-0,076
-276,672	81,133	-0,119	-0,093
-275,657	458,049	0,011	-0,018
-274,643	-200,000	-0,005	-0,027
-273,628	28,792	0,074	0,045
-272,613	-200,000	-0,035	0,179
-271,599	-117,934	-0,043	0,005
-270,584	-89,964	0,009	-0,002
-269,570	-133,438	-0,136	0,012
-268,555	197,592	-0,090	-0,100
-267,540	21,342	0,026	-0,015
-266,526	-200,000	-0,022	-0,181
-265,511	-50,659	-0,038	-0,013
-264,497	-26,843	-0,108	-0,046
-263,482	800,000	0,060	0,136
-262,467	707,701	0,049	0,094
-261,453	112,125	0,036	0,031
-260,438	-135,827	-0,035	0,003
-259,424	-132,149	0,038	-0,003
-258,409	-200,000	0,005	-0,046
-257,395	-5,413	0,050	-0,025
-256,380	-200,000	0,001	0,033
-255,365	703,642	-0,033	0,064
-254,351	238,889	0,043	0,052
-253,336	134,675	-0,014	0,014
-252,322	142,348	-0,090	-0,086
-251,307	800,000	-0,026	-0,059
-250,292	-200,000	-0,002	-0,127
-249,278	800,000	-0,033	0,067
-248,263	-121,241	-0,066	-0,008
-247,249	83,634	0,049	-0,038
-246,234	-200,000	0,046	0,000
-245,219	-200,000	0,015	-0,124
-244,205	100,096	0,099	-0,083
-243,190	-73,176	0,087	0,023
-242,176	800,000	0,048	0,130
-241,161	-200,000	0,032	0,112
-240,146	-159,775	0,192	-0,007
-239,132	800,000	0,040	0,127
-238,117	-1,754	0,041	0,021
-237,103	800,000	0,007	-0,019
-236,088	106,350	0,079	-0,067
-235,073	16,893	-0,023	-0,013
-234,059	589,853	0,040	-0,072
-233,044	-102,040	0,035	0,006
-232,030	740,791	-0,039	-0,076
-231,015	-200,000	-0,028	0,092
-230,000	-139,037	0,059	-0,005
-228,986	800,000	0,062	-0,164
-227,971	800,000	0,044	-0,136
-226,957	211,007	0,093	-0,106
-225,942	59,533	-0,084	0,060
-224,927	-54,851	-0,036	-0,012
-223,913	760,417	0,023	0,046
-222,898	-60,586	-0,082	0,025
-221,884	800,000	-0,023	-0,048
-220,869	-200,000	0,000	0,003
-219,855	-200,000	0,007	0,046
-218,840	-200,000	-0,003	0,021
-217,825	-64,498	-0,032	-0,009
-216,811	-105,252	0,043	-0,007
-215,796	564,685	0,040	0,070
-214,782	662,567	-0,040	0,075
-213,767	800,000	-0,036	-0,090
-212,752	660,106	0,030	0,055
-211,738	169,683	0,026	0,027
-210,723	121,818	0,047	0,043
-209,709	800,000	-0,046	-0,093
-208,694	800,000	0,040	-0,108
-207,679	-141,473	-0,073	0,005
-206,665	-200,000	-0,001	0,162
-205,650	-126,725	0,075	-0,008
-204,636	285,818	-0,045	0,059
-203,621	800,000	0,005	0,012
-202,606	140,630	-0,060	-0,057
-201,592	-149,958	-0,042	-0,002
-200,577	239,877	0,086	-0,103
-199,563	467,277	0,051	0,083
-198,548	-46,761	-0,015	0,005
-197,533	-14,560	-0,077	0,036
-196,519	129,959	0,048	-0,044
-195,504	77,192	0,043	0,033
-194,490	800,000	-0,042	0,089
-193,475	-29,883	-0,077	-0,032
-192,460	800,000	0,039	-0,079
-191,446	800,000	0,047	0,124
-190,431	148,510	-0,101	0,098
-189,417	-200,000	0,034	0,114
-188,402	-23,196	-0,059	0,026
-187,387	235,959	0,063	-0,076
-186,373	-103,227	0,063	-0,011
-185,358	200,060	-0,055	0,061
-184,344	-33,712	0,102	-0,040
-183,329	-20,823	0,093	-0,041
-182,315	-22,761	0,048	0,021
-181,300	-200,000	0,010	-0,037
-180,285	-99,791	0,023	0,004
-179,271	-200,000	-0,022	-0,141
-178,256	-13,737	-0,008	0,004
-177,242	-125,157	0,036	0,004
-176,227	164,493	0,087	-0,088
-175,212	-45,846	0,096	-0,034
-174,198	151,049	-0,071	0,069
-173,183	-200,000	0,006	0,147
-172,169	-109,225	0,021	-0,003
-171,154	136,754	0,066	-0,062
-170,139	-200,000	0,007	0,063
-169,125	-200,000	0,031	0,122
-168,110	800,000	0,019	-0,057
-167,096	173,315	-0,068	0,071
-166,081	-116,496	0,116	0,015
-165,066	482,969	0,042	-0,070
-164,052	-200,000	-0,003	0,033
-163,037	-200,000	0,001	-0,062
-162,023	-200,000	-0,003	-0,022
-161,008	-152,875	-0,036	0,002
-159,993	508,777	0,024	-0,041
-158,979	601,547	-0,081	-0,146
-157,964	-200,000	0,015	-0,049
-156,950	-97,813	0,134	0,025
-155,935	800,000	-0,018	-0,050
-154,920	-169,210	0,080	-0,002
-153,906	-200,000	-0,025	-0,118
-152,891	212,385	0,106	0,120
-151,877	85,201	0,067	0,053
-150,862	78,371	-0,010	-0,007
-149,847	-2,058	-0,117	0,059
-148,833	-200,000	0,019	-0,103
-147,818	156,778	-0,004	0,004
-146,804	-176,028	0,118	-0,002
-145,789	-200,000	-0,010	0,108
-144,775	329,189	-0,033	-0,046
-143,760	120,925	0,033	0,029
-142,745	-98,591	-0,083	0,015
-141,731	-18,180	-0,015	-0,007
-140,716	270,703	-0,019	0,024
-139,702	445,210	-0,052	0,083
-138,687	313,370	-0,086	0,116
-137,672	149,625	0,060	0,059
-136,658	-162,795	-0,217	-0,007
-135,643	23,313	-0,065	-0,038
-134,629	157,652	0,103	0,102
-133,614	-114,639	0,073	0,010
-132,599	-12,581	0,129	0,060
-131,585	800,000	0,125	0,253
-130,570	-24,627	-0,130	0,055
-129,556	-200,000	0,015	-0,077
-128,541	156,720	0,053	-0,053
-127,526	179,352	0,078	-0,082
-126,512	-86,136	-0,134	-0,030
-125,497	283,161	-0,073	0,095
-124,483	-200,000	0,007	0,033
-123,468	800,000	-0,022	0,053
-122,453	21,201	0,078	-0,045
-121,439	37,318	-0,057	-0,036
-120,424	38,926	-0,026	-0,017
-119,410	800,000	-0,037	-0,080
