DTS Sentinel unit serial number:	SN410029Multiplexer serial number:	ORYXHardware model number:	OX2-SRSoftware version number:	ORYX F/W v4,00 Oryx Data Collector v3.7.2.0data status	okinstallation	B6 Nyhavnadifferential loss correction	single-endedforward channel	channel 2reverse channel	N/Adate	2023/12/09time	05:00:08forward acquisition time	300,00reverse acquisition time	0,00gamma	499,1914k internal	0,3144k external	0,3144temperature offset calibration	1,0000default loss term (dB/km)	0,3820temperature slope calibration	1,0000multiplexer offset coefficient	1,0000multiplexer slope coefficient	1,0000fibre end	0,00T internal ref (°C)	17,53T ext. ref 1 (°C)	2,07T ext. ref 2 (°C)	2,08length (m)	temperature (°C)	Stokes	anti-Stokes-744,400	353,661	-0,003	0,005
-743,385	130,358	-0,185	0,175
-742,371	447,442	0,092	0,150
-741,356	81,713	-0,207	0,166
-740,342	-200,000	0,004	0,097
-739,327	27,862	-0,300	0,187
-738,312	136,334	0,023	-0,022
-737,298	-55,048	-0,189	0,063
-736,283	-200,000	-0,013	0,044
-735,269	-78,108	-0,299	0,075
-734,254	-67,820	0,047	-0,013
-733,239	-36,907	-0,474	-0,187
-732,225	-18,492	0,147	0,068
-731,210	-86,134	-0,037	-0,008
-730,196	54,688	-0,029	0,021
-729,181	-62,072	-0,127	-0,039
-728,167	-120,635	-0,067	0,008
-727,152	-151,899	0,053	0,003
-726,137	54,235	-0,123	-0,087
-725,123	-200,000	-0,005	-0,079
-724,108	-157,734	-0,109	0,005
-723,094	-156,199	-0,101	-0,005
-722,079	62,539	-0,126	-0,093
-721,064	-67,702	0,053	-0,015
-720,050	-200,000	0,019	-0,104
-719,035	415,908	-0,024	-0,038
-718,021	9,890	-0,054	-0,030
-717,006	-87,438	-0,114	-0,025
-715,991	493,226	-0,091	-0,155
-714,977	-200,000	-0,014	-0,054
-713,962	-112,223	-0,222	-0,033
-712,948	94,937	-0,079	0,067
-711,933	320,378	-0,099	0,139
-710,918	-200,000	-0,034	0,124
-709,904	8,807	0,067	-0,037
-708,889	260,714	-0,087	-0,111
-707,875	51,748	-0,157	-0,110
-706,860	163,057	0,060	0,062
-705,845	-140,474	0,070	-0,005
-704,831	673,146	0,036	-0,069
-703,816	126,441	0,042	0,039
-702,802	-10,755	-0,025	-0,012
-701,787	-81,743	-0,102	-0,025
-700,772	-200,000	0,014	0,092
-699,758	145,523	0,023	0,023
-698,743	127,989	-0,059	0,055
-697,729	43,037	0,027	0,018
-696,714	-200,000	0,029	-0,235
-695,699	-200,000	-0,031	-0,177
-694,685	187,193	-0,060	0,066
-693,670	362,879	-0,062	-0,092
-692,656	360,314	-0,083	0,123
-691,641	2,147	-0,029	0,015
-690,627	-62,787	0,109	-0,033
-689,612	-82,985	0,156	0,037
-688,597	-171,379	0,086	0,002
-687,583	308,394	0,086	0,119
-686,568	304,480	-0,023	-0,032
-685,554	-12,444	-0,154	0,074
-684,539	-200,000	0,018	-0,100
-683,524	-94,529	0,035	-0,007
-682,510	800,000	0,030	0,095
-681,495	-40,922	-0,189	-0,072
-680,481	-111,525	-0,097	-0,014
-679,466	-139,834	-0,100	0,008
-678,451	67,790	-0,039	-0,030
-677,437	-200,000	0,013	-0,085
-676,422	35,787	0,130	-0,085
-675,408	72,019	0,023	-0,018
-674,393	-200,000	-0,010	-0,152
-673,378	-200,000	-0,007	-0,178
-672,364	64,509	0,012	0,009
-671,349	800,000	0,031	-0,071
-670,335	14,315	-0,016	-0,009
-669,320	701,020	0,036	0,070
-668,305	387,273	-0,076	0,116
-667,291	-200,000	-0,009	-0,064
-666,276	800,000	-0,050	-0,122
-665,262	516,978	-0,073	-0,127
-664,247	142,406	-0,093	-0,091
-663,232	800,000	0,020	-0,047
-662,218	-200,000	0,038	-0,177
-661,203	43,327	0,050	0,033
-660,189	42,559	-0,126	-0,085
-659,174	9,116	0,076	0,042
-658,159	58,729	-0,051	-0,037
-657,145	-85,627	-0,139	-0,032
-656,130	-160,721	0,048	0,002
-655,116	61,837	0,083	-0,061
-654,101	-200,000	-0,012	0,114
-653,086	-200,000	-0,011	0,102
-652,072	288,129	0,060	0,080
-651,057	375,282	0,017	-0,026
-650,043	-186,939	-0,078	0,001
-649,028	-41,396	0,012	-0,005
-648,014	-200,000	0,015	0,059
-646,999	-200,000	-0,001	0,076
-645,984	-200,000	0,022	-0,154
-644,970	174,436	-0,104	-0,111
-643,955	-93,062	-0,076	0,016
-642,941	-120,680	-0,062	0,008
-641,926	0,517	-0,135	0,071
-640,911	-47,969	-0,016	-0,006
-639,897	-11,237	-0,136	-0,066
-638,882	82,086	-0,172	-0,137
-637,868	59,729	0,073	-0,053
-636,853	772,550	-0,066	0,133
-635,838	-17,031	-0,030	-0,014
-634,824	122,488	-0,040	0,036
-633,809	-200,000	-0,016	0,108
-632,795	-6,286	0,066	0,033
-631,780	264,109	0,069	0,089
-630,765	38,067	-0,147	0,096
-629,751	3,651	0,009	0,005
-628,736	458,238	0,010	-0,017
-627,722	-60,456	-0,108	-0,034
-626,707	231,300	0,079	0,095
-625,692	800,000	-0,043	0,098
-624,678	-200,000	0,006	0,055
-623,663	800,000	0,010	-0,032
-622,649	226,361	0,051	-0,061
-621,634	-157,966	-0,043	0,002
-620,619	-137,347	-0,119	0,010
-619,605	484,376	0,058	-0,097
-618,590	-200,000	-0,009	0,177
-617,576	74,316	0,108	0,083
-616,561	-200,000	-0,011	-0,063
-615,546	228,528	-0,050	0,060
-614,532	-200,000	-0,019	-0,103
-613,517	-58,279	-0,118	-0,038
-612,503	47,660	0,060	-0,041
-611,488	122,763	0,125	-0,115
-610,474	528,843	-0,068	-0,118
-609,459	-101,143	-0,141	0,025
-608,444	-111,549	0,072	-0,011
-607,430	-31,982	-0,232	0,095
-606,415	800,000	-0,059	-0,137
-605,401	156,804	0,045	-0,046
-604,386	800,000	-0,046	-0,099
-603,371	-85,128	-0,107	0,025
-602,357	374,455	0,022	-0,033
-601,342	683,836	0,047	-0,090
-600,328	-54,357	-0,223	-0,074
-599,313	-200,000	-0,001	-0,230
-598,298	284,607	0,054	-0,072
-597,284	-2,856	0,034	0,018
-596,269	-200,000	-0,015	0,054
-595,255	378,979	0,031	0,047
-594,240	-200,000	0,022	-0,079
-593,225	192,807	0,092	-0,103
-592,211	-16,888	-0,088	0,041
-591,196	-200,000	0,021	-0,102
-590,182	-133,066	-0,019	-0,002
-589,167	66,099	0,063	-0,047
-588,152	-60,227	-0,040	-0,013
-587,138	-161,890	-0,059	0,002
-586,123	372,144	0,069	-0,103
-585,109	355,844	0,034	0,050
-584,094	264,712	-0,098	0,126
-583,079	-200,000	0,039	0,173
-582,065	-200,000	0,012	0,103
-581,050	55,647	0,108	0,077
-580,036	613,741	-0,081	0,149
-579,021	-200,000	0,001	0,058
-578,006	-200,000	-0,002	-0,071
-576,992	257,613	0,030	-0,039
-575,977	384,543	-0,059	0,090
-574,963	-200,000	0,012	0,108
-573,948	136,396	-0,064	-0,062
-572,934	410,511	-0,040	-0,063
-571,919	251,869	-0,056	0,070
-570,904	-200,000	-0,030	0,120
-569,890	172,056	0,108	0,114
-568,875	800,000	-0,041	-0,108
-567,861	27,680	0,155	0,096
-566,846	-90,043	-0,010	0,002
-565,831	800,000	0,018	0,050
-564,817	634,942	0,053	0,100
-563,802	-53,585	-0,198	-0,066
-562,788	172,348	0,055	0,058
-561,773	-132,645	-0,006	-0,001
-560,758	-101,637	0,096	-0,017
-559,744	-200,000	-0,037	0,131
-558,729	121,160	-0,040	0,037
-557,715	-200,000	-0,035	-0,115
-556,700	577,542	0,080	-0,144
-555,685	800,000	0,009	-0,021
-554,671	147,813	0,051	0,050
-553,656	-145,669	0,113	0,007
-552,642	-161,669	-0,062	0,002
-551,627	130,545	0,030	0,028
-550,612	345,686	-0,053	-0,076
-549,598	291,368	-0,052	-0,070
-548,583	-108,995	0,059	0,009
-547,569	140,942	0,057	0,056
-546,554	-61,953	0,016	0,005
-545,539	26,279	-0,100	0,061
-544,525	-138,981	0,044	0,003
-543,510	160,631	0,082	0,085
-542,496	-200,000	-0,009	-0,085
-541,481	213,627	-0,027	-0,032
-540,466	-125,402	-0,055	0,006
-539,452	-80,443	-0,048	-0,012
-538,437	5,443	0,119	-0,065
-537,423	637,579	0,034	-0,063
-536,408	-74,128	0,049	-0,013
-535,393	800,000	0,036	-0,077
-534,379	-200,000	0,016	-0,170
-533,364	800,000	-0,023	0,052
-532,350	-170,307	-0,116	0,003
-531,335	-136,517	0,089	-0,007
-530,321	-62,295	0,062	-0,019
-529,306	-68,035	0,101	-0,029
-528,291	-71,860	-0,069	0,019
-527,277	422,329	-0,034	-0,053
-526,262	138,838	0,093	0,089
-525,248	157,373	0,072	0,073
-524,233	-200,000	-0,006	-0,044
-523,218	334,085	0,076	0,108
-522,204	-24,820	0,087	-0,038
-521,189	-119,608	-0,106	0,013
-520,175	10,014	-0,124	-0,069
-519,160	229,944	0,021	0,025
-518,145	-17,253	-0,170	-0,078
-517,131	-5,658	0,111	0,055
-516,116	-39,232	0,068	0,026
-515,102	-47,849	-0,048	-0,017
-514,087	-200,000	0,003	-0,044
-513,072	-75,307	-0,052	-0,014
-512,058	-200,000	0,003	-0,126
-511,043	80,364	-0,070	-0,055
-510,029	-137,540	0,091	0,007
-509,014	351,313	-0,018	-0,026
-507,999	287,867	-0,096	0,127
-506,985	800,000	-0,029	-0,068
-505,970	362,526	0,012	0,018
-504,956	-145,903	-0,112	-0,007
-503,941	46,388	-0,049	-0,034
-502,926	501,699	-0,057	0,097
-501,912	-45,361	-0,044	-0,016
-500,897	-77,935	0,078	0,020
-499,883	-196,204	-0,062	-0,000
-498,868	72,088	-0,070	0,053
-497,853	-121,718	-0,029	-0,003
-496,839	34,209	0,050	0,032
-495,824	-200,000	0,018	0,139
-494,810	-40,537	0,073	-0,028
-493,795	62,908	0,027	-0,020
-492,781	800,000	-0,022	0,067
-491,766	-146,546	0,136	-0,009
-490,751	-84,460	0,060	-0,014
-489,737	27,855	-0,087	-0,053
-488,722	38,153	0,145	0,094
-487,708	123,939	-0,082	-0,075
-486,693	193,318	-0,076	-0,084
-485,678	-143,014	-0,077	-0,005
-484,664	-110,559	-0,074	-0,011
-483,649	-114,072	-0,152	0,021
-482,635	194,882	0,093	-0,103
-481,620	119,419	0,089	-0,081
-480,605	39,552	-0,058	0,038
-479,591	-200,000	-0,028	-0,108
-478,576	-110,986	-0,029	0,004
-477,562	800,000	-0,079	0,187
-476,547	92,157	0,009	0,008
-475,532	-36,556	0,009	-0,003
-474,518	54,318	0,083	-0,058
-473,503	-200,000	0,022	0,160
-472,489	-18,227	0,119	0,054
-471,474	436,268	-0,027	0,044
-470,459	25,301	0,075	0,046
-469,445	-200,000	-0,008	-0,202
-468,430	-41,257	-0,031	-0,012
-467,416	562,317	0,048	0,086
-466,401	144,958	-0,068	0,067
-465,386	-200,000	0,007	0,070
-464,372	-22,483	0,045	0,020
-463,357	234,493	-0,084	0,102
-462,343	431,148	0,015	-0,023
-461,328	277,939	0,045	-0,059
-460,313	167,613	-0,071	0,074
-459,299	127,442	0,063	0,059
-458,284	71,692	0,078	-0,059
-457,270	-101,103	0,100	0,018
-456,255	-37,934	0,030	-0,011
-455,241	800,000	-0,049	0,111
-454,226	557,460	-0,063	0,111
-453,211	800,000	0,012	-0,036
-452,197	26,985	0,069	0,043
-451,182	-90,156	0,024	0,005
-450,168	-7,648	-0,098	-0,049
-449,153	586,798	-0,071	-0,129
-448,138	-200,000	-0,027	-0,108
-447,124	-200,000	0,011	-0,051
-446,109	319,837	0,068	-0,095
-445,095	106,948	0,110	0,095
-444,080	-149,596	0,039	-0,002
-443,065	-200,000	-0,015	0,077
-442,051	800,000	-0,055	0,115
-441,036	-200,000	0,002	0,019
-440,022	304,585	-0,043	-0,059
-439,007	195,572	-0,013	-0,015
-437,992	800,000	0,015	0,036
-436,978	-200,000	-0,004	-0,013
-435,963	766,254	0,038	0,076
-434,949	-200,000	-0,013	-0,055
-433,934	128,590	-0,089	-0,083
-432,919	-93,703	-0,165	0,033
-431,905	-28,060	-0,040	-0,017
-430,890	-124,376	0,077	0,009
-429,876	-200,000	-0,002	-0,019
-428,861	-33,822	0,097	-0,039
-427,846	142,391	0,101	0,099
-426,832	-200,000	0,005	0,026
-425,817	-119,910	-0,048	-0,006
-424,803	-51,104	0,106	-0,036
-423,788	702,307	0,051	0,099
-422,773	34,157	0,061	0,039
-421,759	339,202	-0,091	0,130
-420,744	-200,000	-0,076	-0,266
-419,730	34,038	-0,124	-0,079
-418,715	800,000	-0,012	-0,027
-417,701	-200,000	-0,037	-0,193
-416,686	159,426	-0,133	-0,136
-415,671	-191,640	0,143	-0,001
-414,657	-55,102	0,107	0,035
-413,642	-72,674	0,157	0,042
-412,628	-127,705	0,054	-0,006
-411,613	-11,497	-0,061	-0,029
-410,598	-95,265	0,138	-0,027
-409,584	-200,000	0,012	-0,116
-408,569	337,473	-0,027	-0,038
-407,555	57,915	0,127	-0,091
-406,540	97,843	-0,030	-0,025
-405,525	-200,000	0,024	0,141
-404,511	-2,347	-0,116	-0,059
-403,496	-165,033	-0,087	0,003
-402,482	-200,000	0,006	-0,036
-401,467	162,273	0,128	-0,131
-400,452	5,131	0,035	-0,019
-399,438	19,668	0,097	-0,057
-398,423	76,980	0,035	-0,027
-397,409	62,008	-0,149	-0,109
-396,394	-47,820	-0,067	-0,024
-395,379	-19,944	-0,147	0,066
-394,365	774,480	0,078	0,155
-393,350	-127,186	0,151	-0,016
-392,336	130,983	0,042	-0,040
-391,321	391,381	-0,041	0,063
-390,306	142,060	-0,076	-0,074
-389,292	102,280	-0,068	0,058
-388,277	575,389	-0,035	-0,062
-387,263	-150,663	-0,017	0,001
-386,248	800,000	0,007	0,020
-385,233	139,911	0,075	0,072
-384,219	800,000	0,079	0,217
-383,204	31,860	-0,084	0,053
-382,190	14,347	0,051	-0,029
-381,175	-80,376	-0,114	-0,027
-380,160	-62,614	0,133	-0,040
-379,146	86,572	-0,020	-0,016
-378,131	-132,837	0,084	-0,008
-377,117	58,070	0,090	-0,064
-376,102	-200,000	-0,030	0,109
-375,088	52,685	-0,170	-0,119
-374,073	800,000	0,021	0,045
-373,058	800,000	0,026	0,080
-372,044	-28,872	0,122	0,051
-371,029	8,765	0,039	-0,021
-370,015	-50,218	0,037	0,013
-369,000	-72,224	-0,089	0,024
-367,985	800,000	0,016	-0,042
-366,971	116,844	0,076	-0,068
-365,956	-151,672	0,168	0,009
-364,942	-200,000	-0,005	0,146
-363,927	-200,000	0,039	-0,127
-362,912	52,403	-0,022	-0,015
-361,898	-166,524	0,051	0,002
-360,883	-200,000	0,001	-0,051
-359,869	210,711	0,076	-0,088
-358,854	-200,000	-0,002	0,020
-357,839	800,000	0,045	0,094
-356,825	1,118	0,027	-0,014
-355,810	800,000	0,026	-0,060
-354,796	-200,000	0,014	-0,081
-353,781	-33,471	-0,071	-0,028
-352,766	-200,000	-0,004	-0,147
-351,752	-200,000	0,016	-0,070
-350,737	800,000	0,028	-0,079
-349,723	19,469	-0,102	0,060
-348,708	71,699	-0,072	-0,054
-347,693	-111,892	0,065	-0,009
-346,679	800,000	0,031	-0,064
-345,664	800,000	-0,067	0,159
-344,650	-32,456	0,148	0,060
-343,635	800,000	0,014	-0,039
-342,620	170,630	0,105	-0,110
-341,606	-64,787	-0,110	-0,032
-340,591	104,045	0,056	-0,048
-339,577	230,545	-0,087	-0,104
-338,562	-200,000	-0,004	-0,024
-337,548	239,666	-0,053	0,064
-336,533	130,189	0,038	-0,035
-335,518	401,636	-0,032	0,049
-334,504	-200,000	-0,005	0,188
-333,489	83,364	0,035	0,028
-332,475	800,000	0,028	0,075
-331,460	-123,002	-0,121	-0,014
-330,445	99,343	0,077	-0,065
-329,431	70,841	-0,009	0,007
-328,416	-32,250	0,080	-0,032
-327,402	264,532	-0,021	-0,027
-326,387	-127,781	0,094	-0,010
-325,372	92,580	-0,099	-0,081
-324,358	-200,000	0,014	-0,078
-323,343	476,473	0,026	0,044
-322,329	-3,650	0,085	-0,043
-321,314	248,199	0,049	-0,061
-320,299	-159,840	-0,073	0,003
-319,285	175,854	-0,051	0,054
-318,270	-200,000	-0,008	-0,076
-317,256	261,635	0,071	-0,090
-316,241	800,000	-0,025	-0,064
-315,226	-128,132	0,142	-0,015
-314,212	-134,508	-0,129	0,011
-313,197	-80,099	0,082	-0,020
-312,183	-165,120	0,187	0,006
-311,168	-55,600	0,018	0,006
-310,153	392,368	0,142	-0,216
-309,139	-200,000	0,004	-0,045
-308,124	-200,000	0,003	-0,066
-307,110	9,821	-0,036	0,020
-306,095	800,000	-0,020	0,055
-305,080	-200,000	-0,019	0,097
-304,066	186,146	0,028	0,031
-303,051	-200,000	0,034	-0,126
-302,037	-200,000	-0,003	-0,064
-301,022	-200,000	0,001	-0,053
-300,008	29,008	0,127	0,078
-298,993	800,000	0,087	-0,199
-297,978	-110,369	0,108	-0,016
-296,964	-15,406	-0,085	-0,039
-295,949	-24,740	0,086	-0,037
-294,935	-200,000	0,004	0,104
-293,920	-124,158	0,128	-0,014
-292,905	33,459	0,089	0,056
-291,891	800,000	0,018	0,058
-290,876	719,202	-0,074	0,143
-289,862	-200,000	-0,009	-0,155
-288,847	-13,007	-0,044	0,021
-287,832	1,293	-0,106	0,055
-286,818	-200,000	-0,003	0,117
-285,803	-81,388	0,135	-0,032
-284,789	457,075	0,037	0,061
-283,774	-200,000	-0,009	0,117
-282,759	-200,000	0,006	0,055
-281,745	-200,000	0,008	0,052
-280,730	130,656	-0,096	-0,089
-279,716	-200,000	-0,021	0,098
-278,701	-162,172	-0,085	0,003
-277,686	-141,475	0,186	0,013
-276,672	800,000	0,081	0,169
-275,657	-155,110	-0,026	-0,001
-274,643	-128,297	-0,127	-0,013
-273,628	254,564	0,095	-0,118
-272,613	-153,324	0,056	-0,003
-271,599	-200,000	-0,006	-0,073
-270,584	800,000	0,054	0,110
-269,570	-50,062	0,033	0,011
-268,555	-200,000	0,012	-0,081
-267,540	184,716	-0,074	-0,080
-266,526	-200,000	0,000	-0,098
-265,511	800,000	-0,067	-0,137
-264,497	-200,000	0,021	0,137
-263,482	-134,014	0,119	0,011
-262,467	-16,346	-0,039	-0,018
-261,453	42,436	-0,034	0,022
-260,438	-200,000	-0,002	-0,133
-259,424	100,559	-0,059	0,050
-258,409	-64,746	0,052	-0,015
-257,395	70,274	-0,118	0,089
-256,380	-58,620	-0,085	-0,027
-255,365	800,000	0,023	0,064
-254,351	-200,000	0,000	-0,082
-253,336	-54,394	-0,105	0,034
-252,322	800,000	-0,020	-0,045
-251,307	800,000	-0,051	-0,106
-250,292	-200,000	-0,011	0,057
-249,278	-12,035	0,034	0,016
-248,263	800,000	0,059	0,187
-247,249	-147,032	0,045	-0,003
-246,234	-74,990	-0,091	-0,024
-245,219	20,333	-0,063	0,037
-244,205	-200,000	0,025	-0,145
-243,190	800,000	-0,017	0,043
-242,176	748,809	-0,037	0,073
-241,161	-122,387	-0,020	0,002
-240,146	800,000	-0,020	0,048
-239,132	583,306	-0,031	-0,056
-238,117	123,700	0,047	-0,042
-237,103	-18,763	-0,050	-0,022
-236,088	382,656	-0,048	-0,072
-235,073	-200,000	0,028	0,114
-234,059	-200,000	0,006	-0,038
-233,044	3,811	-0,003	-0,001
-232,030	-200,000	-0,018	0,059
-231,015	-84,889	-0,090	0,020
-230,000	-106,016	0,083	-0,013
-228,986	211,629	-0,012	0,014
-227,971	-188,740	0,264	0,002
-226,957	83,485	-0,035	0,028
-225,942	800,000	0,050	0,128
-224,927	-148,902	-0,091	0,005
-223,913	-103,103	-0,027	0,005
-222,898	-109,100	0,129	0,020
-221,884	448,953	-0,067	-0,108
-220,869	359,803	-0,108	0,157
-219,855	-200,000	-0,012	0,140
-218,840	-52,347	0,141	-0,047
-217,825	-20,055	0,041	-0,018
-216,811	459,186	0,042	0,067
-215,796	751,524	0,055	-0,108
-214,782	-200,000	0,011	0,064
-213,767	493,515	-0,017	0,029
-212,752	800,000	-0,034	0,081
-211,738	-200,000	-0,026	0,153
-210,723	475,652	-0,033	-0,053
-209,709	157,270	-0,030	-0,030
-208,694	-200,000	0,007	-0,053
-207,679	800,000	-0,030	0,070
-206,665	5,915	0,092	-0,049
-205,650	-39,816	0,136	0,051
-204,636	5,691	0,043	-0,023
-203,621	-82,998	-0,078	-0,018
-202,606	-200,000	-0,020	0,105
-201,592	99,426	0,044	0,037
-200,577	-29,194	-0,117	0,049
-199,563	-198,152	0,049	-0,000
-198,548	417,059	0,087	0,134
-197,533	125,909	0,045	0,041
-196,519	800,000	0,028	-0,073
-195,504	552,402	-0,039	-0,069
-194,490	-124,058	-0,077	0,009
-193,475	133,193	-0,046	-0,043
-192,460	183,340	0,060	0,064
-191,446	-200,000	0,000	0,191
-190,431	-200,000	0,004	0,122
-189,417	-3,362	-0,124	0,062
-188,402	-45,180	-0,135	0,048
-187,387	-200,000	-0,021	0,085
-186,373	-60,722	-0,146	-0,044
-185,358	-89,545	-0,077	0,016
-184,344	-90,708	0,085	0,018
-183,329	800,000	0,014	0,034
-182,315	-11,667	-0,057	-0,027
-181,300	-200,000	-0,037	0,131
-180,285	633,787	-0,078	0,144
-179,271	-200,000	0,038	-0,126
-178,256	-200,000	-0,026	-0,100
-177,242	-200,000	-0,005	0,078
-176,227	-50,575	0,120	-0,041
-175,212	-200,000	0,029	-0,102
-174,198	800,000	-0,038	-0,097
-173,183	-65,038	-0,146	0,042
-172,169	-200,000	-0,005	-0,034
-171,154	-200,000	-0,002	-0,036
-170,139	156,415	-0,024	-0,024
-169,125	-143,479	0,124	-0,008
-168,110	-124,780	-0,089	-0,010
-167,096	800,000	0,049	-0,130
-166,081	-5,249	0,148	0,073
-165,066	-126,637	-0,118	0,013
-164,052	52,069	0,006	-0,004
-163,037	-200,000	-0,023	0,199
-162,023	495,458	0,025	0,042
-161,008	83,119	-0,082	-0,064
-159,993	-10,834	-0,029	-0,014
-158,979	146,559	-0,062	0,060
-157,964	-51,242	0,074	-0,025
-156,950	73,060	-0,083	-0,063
-155,935	-90,792	-0,163	-0,034
-154,920	274,671	-0,013	-0,017
-153,906	86,877	0,059	0,047
-152,891	800,000	0,049	0,102
-151,877	17,112	-0,077	0,044
-150,862	178,150	-0,027	-0,028
-149,847	800,000	-0,029	-0,086
-148,833	-200,000	-0,013	-0,087
-147,818	-200,000	0,011	0,063
-146,804	351,593	-0,093	-0,134
-145,789	176,877	-0,024	-0,026
-144,775	524,173	-0,035	-0,060
-143,760	65,027	-0,143	0,104
-142,745	-200,000	0,005	0,026
-141,731	800,000	0,020	-0,057
-140,716	800,000	0,039	0,112
-139,702	800,000	-0,042	-0,098
-138,687	-200,000	-0,012	-0,071
-137,672	59,539	0,169	-0,120
-136,658	117,319	-0,046	-0,041
-135,643	-200,000	0,006	-0,042
-134,629	292,648	-0,069	-0,091
-133,614	-10,734	0,087	-0,041
-132,599	-187,279	0,104	0,001
-131,585	-200,000	-0,015	0,054
-130,570	800,000	0,038	-0,086
-129,556	36,069	0,073	-0,047
-128,541	590,501	0,023	0,041
-127,526	-60,085	-0,064	-0,019
-126,512	-200,000	-0,007	0,173
-125,497	800,000	-0,015	0,033
-124,483	511,887	0,016	0,028
-123,468	380,780	-0,049	0,073
-122,453	800,000	-0,047	-0,109
-121,439	-200,000	0,012	-0,100
-120,424	800,000	0,019	-0,052
