DTS Sentinel unit serial number:	SN410029Multiplexer serial number:	ORYXHardware model number:	OX2-SRSoftware version number:	ORYX F/W v4,00 Oryx Data Collector v3.7.2.0data status	okinstallation	B6 Nyhavnadifferential loss correction	single-endedforward channel	channel 2reverse channel	N/Adate	2023/12/09time	20:40:08forward acquisition time	300,00reverse acquisition time	0,00gamma	499,1914k internal	0,3129k external	0,3129temperature offset calibration	1,0000default loss term (dB/km)	0,3820temperature slope calibration	1,0000multiplexer offset coefficient	1,0000multiplexer slope coefficient	1,0000fibre end	0,00T internal ref (°C)	21,38T ext. ref 1 (°C)	5,39T ext. ref 2 (°C)	5,39length (m)	temperature (°C)	Stokes	anti-Stokes-744,400	-200,000	-0,003	-0,075
-743,385	-106,364	-0,232	0,038
-742,371	-12,595	0,169	-0,082
-741,356	303,897	-0,146	0,201
-740,342	-200,000	0,007	0,166
-739,327	28,280	-0,219	0,137
-738,312	-12,991	0,125	-0,060
-737,298	-146,943	-0,230	0,014
-736,283	-200,000	0,018	0,112
-735,269	-31,816	-0,262	0,109
-734,254	67,584	0,131	0,100
-733,239	-62,996	-0,300	-0,092
-732,225	-87,534	0,150	0,033
-731,210	-200,000	-0,009	0,116
-730,196	249,636	-0,030	0,038
-729,181	800,000	0,023	0,052
-728,167	241,338	0,031	-0,038
-727,152	-114,795	0,065	0,009
-726,137	-25,167	-0,089	-0,039
-725,123	-99,285	-0,103	-0,019
-724,108	-200,000	-0,019	-0,115
-723,094	36,045	-0,091	-0,059
-722,079	-87,380	-0,210	-0,047
-721,064	800,000	0,064	-0,138
-720,050	90,564	-0,033	-0,027
-719,035	-200,000	0,142	0,000
-718,021	-91,000	0,040	-0,008
-717,006	-157,265	-0,181	0,008
-715,991	43,863	-0,219	-0,149
-714,977	187,660	0,028	-0,031
-713,962	200,990	0,018	-0,021
-712,948	800,000	0,054	0,155
-711,933	-200,000	0,007	0,054
-710,918	800,000	0,066	-0,187
-709,904	30,301	0,117	0,074
-708,889	142,223	0,040	0,040
-707,875	28,180	-0,052	0,032
-706,860	170,525	-0,035	-0,037
-705,845	-9,111	-0,088	-0,044
-704,831	-85,698	0,018	0,004
-703,816	-200,000	-0,002	0,030
-702,802	800,000	-0,015	-0,043
-701,787	800,000	0,014	-0,031
-700,772	-200,000	-0,004	-0,119
-699,758	-200,000	-0,004	-0,021
-698,743	-37,685	-0,068	0,027
-697,729	-14,044	0,097	-0,046
-696,714	80,677	0,112	-0,090
-695,699	393,694	-0,086	-0,134
-694,685	-200,000	-0,003	0,056
-693,670	-61,220	-0,101	-0,031
-692,656	-200,000	0,003	0,017
-691,641	-200,000	0,018	0,130
-690,627	-57,143	0,116	-0,038
-689,612	316,103	0,037	-0,052
-688,597	-54,030	-0,123	-0,041
-687,583	800,000	0,020	-0,051
-686,568	800,000	-0,015	0,049
-685,554	37,801	-0,092	0,060
-684,539	248,241	0,045	-0,056
-683,524	-18,572	-0,107	0,049
-682,510	341,797	-0,034	0,050
-681,495	-200,000	0,014	0,182
-680,481	-200,000	0,002	-0,080
-679,466	-200,000	-0,005	-0,058
-678,451	-200,000	0,008	-0,142
-677,437	800,000	0,001	0,002
-676,422	800,000	-0,026	0,054
-675,408	273,092	0,059	0,078
-674,393	-200,000	0,013	-0,105
-673,378	200,422	-0,082	-0,093
-672,364	-124,676	0,103	-0,012
-671,349	-151,542	-0,010	-0,001
-670,335	298,452	0,085	-0,117
-669,320	-145,150	-0,093	-0,006
-668,305	-200,000	-0,024	0,121
-667,291	-25,952	-0,179	0,078
-666,276	242,651	0,036	0,045
-665,262	595,941	-0,052	-0,096
-664,247	-200,000	0,014	-0,048
-663,232	-70,039	0,095	0,027
-662,218	245,303	-0,026	0,033
-661,203	330,783	-0,032	0,046
-660,189	-200,000	-0,007	0,080
-659,174	-200,000	-0,013	-0,152
-658,159	-200,000	-0,006	-0,117
-657,145	268,579	0,075	-0,097
-656,130	53,181	-0,025	0,018
-655,116	207,108	0,156	0,180
-654,101	800,000	0,028	0,066
-653,086	9,963	-0,052	0,029
-652,072	-200,000	0,007	0,053
-651,057	138,745	-0,028	-0,027
-650,043	36,177	0,028	-0,018
-649,028	75,917	0,114	0,089
-648,014	24,436	-0,097	-0,059
-646,999	150,734	-0,125	-0,126
-645,984	172,836	0,028	-0,030
-644,970	-40,402	-0,110	0,042
-643,955	-200,000	-0,003	-0,048
-642,941	-200,000	-0,040	-0,186
-641,926	389,272	0,080	0,123
-640,911	135,109	-0,037	-0,036
-639,897	143,068	-0,077	-0,076
-638,882	-86,376	-0,206	0,047
-637,868	-200,000	0,005	-0,031
-636,853	-129,650	-0,051	-0,005
-635,838	216,802	-0,059	-0,069
-634,824	-24,794	-0,051	-0,022
-633,809	-114,936	0,113	-0,016
-632,795	800,000	-0,025	0,056
-631,780	-46,168	0,062	-0,022
-630,765	378,184	-0,049	-0,074
-629,751	-34,327	-0,077	-0,031
-628,736	-131,554	-0,048	-0,005
-627,722	-64,175	-0,145	-0,044
-626,707	-30,213	0,095	0,040
-625,692	611,923	-0,051	0,096
-624,678	125,661	-0,140	0,131
-623,663	-200,000	-0,036	0,127
-622,649	58,676	-0,085	-0,062
-621,634	223,340	-0,020	-0,024
-620,619	54,419	-0,097	0,069
-619,605	-200,000	-0,007	-0,170
-618,590	15,798	-0,118	0,069
-617,576	-154,208	0,092	0,005
-616,561	800,000	-0,057	0,125
-615,546	-69,639	-0,071	-0,020
-614,532	447,592	-0,058	-0,095
-613,517	-136,068	0,094	-0,008
-612,503	29,073	-0,088	-0,055
-611,488	800,000	-0,007	0,018
-610,474	-12,842	0,113	-0,054
-609,459	-200,000	0,002	-0,059
-608,444	-200,000	0,005	-0,137
-607,430	249,619	0,045	-0,056
-606,415	-200,000	-0,015	-0,052
-605,401	-47,134	0,050	-0,018
-604,386	-160,591	0,022	0,001
-603,371	-186,061	0,203	-0,002
-602,357	-44,319	0,032	-0,012
-601,342	800,000	0,033	-0,085
-600,328	800,000	0,014	0,035
-599,313	207,739	0,070	-0,081
-598,298	-200,000	0,023	0,078
-597,284	-200,000	0,006	0,048
-596,269	800,000	-0,012	0,032
-595,255	-200,000	0,015	-0,063
-594,240	800,000	-0,071	-0,153
-593,225	-4,402	-0,033	-0,017
-592,211	20,766	0,079	-0,047
-591,196	-200,000	0,008	-0,044
-590,182	285,738	-0,075	0,100
-589,167	-76,386	-0,061	-0,016
-588,152	-48,469	-0,081	0,029
-587,138	-200,000	-0,033	0,184
-586,123	70,905	0,062	0,048
-585,109	800,000	0,023	-0,067
-584,094	800,000	0,016	0,052
-583,079	325,144	-0,042	0,060
-582,065	-48,108	0,057	-0,020
-581,050	49,822	0,080	-0,056
-580,036	435,664	-0,025	0,040
-579,021	16,969	-0,028	0,017
-578,006	393,081	-0,074	-0,114
-576,992	-200,000	-0,007	-0,070
-575,977	482,570	0,033	0,055
-574,963	-45,300	-0,067	0,024
-573,948	-50,987	0,051	0,018
-572,934	-17,713	-0,131	0,061
-571,919	706,761	-0,051	0,099
-570,904	347,005	-0,020	0,029
-569,890	800,000	-0,042	-0,093
-568,875	209,748	0,032	-0,037
-567,861	155,548	-0,078	-0,080
-566,846	-200,000	-0,046	0,195
-565,831	-122,489	0,065	0,008
-564,817	-200,000	-0,002	-0,032
-563,802	548,137	-0,028	-0,049
-562,788	748,123	0,063	-0,126
-561,773	206,785	-0,013	0,015
-560,758	446,302	0,035	0,057
-559,744	-40,674	0,084	0,032
-558,729	450,275	-0,031	0,051
-557,715	316,389	-0,029	0,040
-556,700	15,763	0,033	0,019
-555,685	24,404	-0,124	-0,075
-554,671	106,776	0,060	0,052
-553,656	108,473	-0,035	-0,031
-552,642	800,000	-0,045	0,112
-551,627	-174,321	0,160	-0,003
-550,612	800,000	-0,029	-0,067
-549,598	800,000	0,025	-0,052
-548,583	402,398	0,040	-0,062
-547,569	-200,000	0,010	-0,137
-546,554	800,000	0,046	-0,104
-545,539	-200,000	0,020	0,111
-544,525	53,593	-0,072	-0,051
-543,510	528,645	0,057	0,101
-542,496	-147,066	-0,047	0,003
-541,481	8,220	-0,066	0,036
-540,466	-46,967	-0,049	0,018
-539,452	575,514	0,033	0,060
-538,437	65,493	0,117	0,087
-537,423	800,000	-0,016	-0,035
-536,408	-200,000	-0,005	0,057
-535,393	-158,543	0,044	0,002
-534,379	-158,235	-0,102	0,004
-533,364	800,000	0,053	-0,154
-532,350	-200,000	0,023	-0,152
-531,335	-34,288	-0,018	0,007
-530,321	-200,000	0,024	0,146
-529,306	448,877	-0,012	-0,019
-528,291	221,640	-0,077	-0,092
-527,277	240,827	-0,095	-0,117
-526,262	202,124	0,032	0,036
-525,248	67,464	-0,106	-0,080
-524,233	363,660	-0,052	0,078
-523,218	-79,939	-0,083	-0,021
-522,204	-200,000	0,004	-0,165
-521,189	-200,000	0,018	-0,101
-520,175	347,635	-0,022	0,032
-519,160	-200,000	0,044	-0,145
-518,145	-58,936	-0,067	-0,021
-517,131	495,347	0,044	0,075
-516,116	10,602	0,116	0,065
-515,102	514,420	0,055	-0,096
-514,087	800,000	-0,018	0,055
-513,072	-200,000	-0,014	-0,076
-512,058	-200,000	0,015	-0,060
-511,043	-200,000	0,025	0,127
-510,029	607,911	0,093	-0,172
-509,014	800,000	0,052	0,137
-507,999	391,378	-0,011	-0,017
-506,985	800,000	0,006	0,016
-505,970	44,336	-0,178	-0,120
-504,956	30,674	-0,047	0,029
-503,941	-200,000	0,012	-0,093
-502,926	19,158	-0,114	0,067
-501,912	-200,000	0,011	-0,038
-500,897	249,383	-0,065	0,081
-499,883	311,741	0,082	0,113
-498,868	-200,000	-0,004	-0,059
-497,853	800,000	-0,021	-0,061
-496,839	48,206	-0,046	0,032
-495,824	171,800	0,050	-0,053
-494,810	288,034	0,008	0,011
-493,795	449,363	0,090	0,146
-492,781	290,910	-0,047	0,063
-491,766	-42,555	0,045	-0,017
-490,751	543,958	-0,060	0,105
-489,737	-3,073	-0,024	0,012
-488,722	114,893	0,058	-0,052
-487,708	-200,000	-0,015	0,064
-486,693	518,969	-0,031	0,054
-485,678	97,134	-0,059	-0,050
-484,664	-81,280	-0,087	-0,021
-483,649	800,000	-0,027	-0,068
-482,635	267,741	0,089	0,114
-481,620	42,948	0,059	0,039
-480,605	-21,861	0,088	0,039
-479,591	63,939	0,026	0,019
-478,576	-128,547	-0,189	-0,019
-477,562	-61,425	0,076	-0,024
-476,547	-200,000	-0,010	-0,116
-475,532	-101,248	-0,245	-0,044
-474,518	163,762	-0,047	0,049
-473,503	31,192	0,136	0,086
-472,489	434,849	0,091	0,146
-471,474	-200,000	0,004	-0,068
-470,459	0,363	0,017	0,009
-469,445	-200,000	0,057	-0,189
-468,430	-75,740	-0,018	0,005
-467,416	-72,843	-0,040	-0,011
-466,401	25,380	-0,060	-0,037
-465,386	-169,616	0,082	-0,002
-464,372	-162,199	0,126	0,005
-463,357	-111,497	0,104	0,015
-462,343	-25,636	0,024	0,010
-461,328	648,650	0,005	0,010
-460,313	-200,000	-0,017	0,119
-459,299	800,000	0,029	0,060
-458,284	548,198	0,012	0,022
-457,270	-133,843	-0,055	0,005
-456,255	-200,000	0,027	0,104
-455,241	-12,463	0,074	-0,036
-454,226	-200,000	-0,010	-0,153
-453,211	-26,898	-0,105	-0,045
-452,197	-27,772	0,027	-0,012
-451,182	-56,492	-0,200	-0,065
-450,168	182,230	0,068	-0,074
-449,153	-200,000	-0,024	-0,113
-448,138	-120,057	0,104	-0,013
-447,124	216,801	-0,032	0,037
-446,109	470,424	0,033	0,054
-445,095	800,000	-0,027	0,059
-444,080	800,000	0,034	0,091
-443,065	22,988	-0,064	-0,038
-442,051	104,391	0,103	0,089
-441,036	-200,000	-0,009	0,063
-440,022	-97,389	-0,054	-0,010
-439,007	554,714	-0,067	0,120
-437,992	225,609	0,053	0,064
-436,978	-110,842	0,019	0,003
-435,963	78,593	-0,061	0,048
-434,949	754,986	-0,022	0,044
-433,934	119,445	-0,144	-0,131
-432,919	-158,717	-0,052	0,002
-431,905	142,086	0,067	-0,065
-430,890	-40,685	0,118	0,045
-429,876	-67,529	0,084	-0,024
-428,861	-200,000	0,011	-0,041
-427,846	170,629	-0,109	-0,115
-426,832	-200,000	-0,005	-0,055
-425,817	-134,095	-0,099	-0,009
-424,803	-54,455	0,023	-0,008
-423,788	-182,401	0,033	0,000
-422,773	260,392	0,076	-0,097
-421,759	389,056	0,085	0,130
-420,744	-7,182	-0,088	0,044
-419,730	784,766	0,029	-0,059
-418,715	-200,000	-0,002	0,121
-417,701	-200,000	0,024	0,123
-416,686	-200,000	0,004	0,076
-415,671	406,454	0,079	0,123
-414,657	256,184	0,024	-0,030
-413,642	-39,684	-0,126	0,048
-412,628	-200,000	-0,006	0,025
-411,613	95,992	-0,078	-0,066
-410,598	160,841	0,035	-0,036
-409,584	-200,000	-0,014	-0,057
-408,569	-200,000	0,020	0,164
-407,555	-22,768	-0,058	0,026
-406,540	182,315	-0,045	-0,049
-405,525	53,297	0,020	-0,014
-404,511	-200,000	-0,003	-0,092
-403,496	253,016	0,038	-0,048
-402,482	47,047	-0,167	0,114
-401,467	-200,000	0,023	0,115
-400,452	-179,616	-0,015	0,000
-399,438	-200,000	-0,024	0,163
-398,423	800,000	-0,032	0,081
-397,409	-160,605	-0,067	0,003
-396,394	88,683	-0,049	-0,040
-395,379	-97,520	0,100	0,019
-394,365	-48,090	0,111	-0,039
-393,350	-200,000	0,009	-0,039
-392,336	240,922	-0,005	-0,006
-391,321	291,878	-0,055	0,073
-390,306	212,696	-0,088	0,102
-389,292	87,894	0,099	-0,081
-388,277	244,906	0,065	-0,080
-387,263	185,016	-0,055	-0,059
-386,248	-200,000	0,003	0,184
-385,233	-70,865	0,125	-0,034
-384,219	15,962	0,178	-0,103
-383,204	-200,000	-0,038	-0,147
-382,190	-200,000	-0,024	-0,204
-381,175	226,302	0,044	-0,052
-380,160	-200,000	0,001	-0,026
-379,146	171,945	-0,048	0,050
-378,131	800,000	-0,024	0,053
-377,117	48,844	-0,070	-0,048
-376,102	-75,737	0,047	-0,012
-375,088	-200,000	0,012	-0,140
-374,073	-138,135	-0,138	-0,011
-373,058	-52,227	0,082	0,028
-372,044	-200,000	0,033	-0,144
-371,029	-200,000	0,008	0,118
-370,015	-200,000	0,004	0,024
-369,000	-90,766	-0,112	0,024
-367,985	800,000	-0,016	-0,032
-366,971	137,804	-0,035	-0,034
-365,956	593,589	-0,059	0,107
-364,942	-22,606	0,024	-0,011
-363,927	156,239	0,015	-0,015
-362,912	-70,668	0,072	0,020
-361,898	800,000	0,052	-0,129
-360,883	200,064	-0,072	-0,081
-359,869	-200,000	0,040	-0,135
-358,854	-200,000	-0,009	0,122
-357,839	236,666	0,074	0,090
-356,825	64,783	0,134	0,099
-355,810	-200,000	-0,041	0,151
-354,796	800,000	-0,062	-0,145
-353,781	-30,264	-0,089	0,037
-352,766	-200,000	-0,028	-0,106
-351,752	428,331	-0,022	-0,034
-350,737	66,257	0,048	-0,035
-349,723	122,651	0,052	0,048
-348,708	144,978	0,161	-0,158
-347,693	-200,000	0,002	0,050
-346,679	-134,431	-0,129	-0,011
-345,664	800,000	-0,016	0,033
-344,650	-200,000	-0,020	-0,093
-343,635	800,000	-0,018	0,045
-342,620	261,214	0,061	0,077
-341,606	-43,508	-0,079	0,029
-340,591	-111,723	-0,083	0,012
-339,577	253,760	0,053	-0,067
-338,562	-200,000	0,007	0,048
-337,548	-106,805	-0,078	-0,013
-336,533	104,103	0,170	-0,147
-335,518	785,230	-0,052	0,106
-334,504	387,183	-0,029	0,045
-333,489	-200,000	0,034	0,160
-332,475	16,901	0,074	0,043
-331,460	22,042	0,094	-0,056
-330,445	189,544	-0,138	-0,151
-329,431	265,288	0,068	-0,087
-328,416	800,000	-0,038	-0,100
-327,402	-200,000	0,008	0,103
-326,387	173,715	-0,072	-0,076
-325,372	-200,000	-0,018	0,128
-324,358	800,000	-0,026	-0,066
-323,343	452,420	-0,023	-0,038
-322,329	516,174	0,101	0,173
-321,314	-200,000	-0,003	-0,034
-320,299	-103,178	0,153	-0,026
-319,285	425,354	-0,026	0,042
-318,270	-12,911	-0,076	0,036
-317,256	599,153	-0,006	0,011
-316,241	-147,973	0,094	-0,006
-315,226	-200,000	-0,013	0,057
-314,212	154,718	0,103	-0,104
-313,197	-200,000	-0,020	0,085
-312,183	-115,228	0,170	0,023
-311,168	-200,000	-0,013	-0,046
-310,153	-121,495	-0,035	-0,004
-309,139	800,000	-0,060	-0,151
-308,124	114,466	-0,036	0,032
-307,110	-12,022	0,062	0,030
-306,095	43,277	0,094	0,063
-305,080	238,636	0,060	0,074
-304,066	-109,853	-0,043	-0,007
-303,051	-200,000	0,007	-0,102
-302,037	116,874	0,019	0,017
-301,022	800,000	-0,016	-0,042
-300,008	-200,000	-0,002	-0,011
-298,993	-58,677	-0,200	0,063
-297,978	-121,282	-0,114	0,014
-296,964	487,534	-0,033	-0,056
-295,949	43,191	-0,033	-0,022
-294,935	49,947	0,041	0,028
-293,920	326,706	0,072	-0,101
-292,905	-200,000	0,034	0,114
-291,891	-107,803	0,068	-0,011
-290,876	-14,046	-0,052	-0,025
-289,862	218,885	-0,073	-0,085
-288,847	415,276	-0,073	0,114
-287,832	-42,584	0,069	0,025
-286,818	349,756	-0,072	-0,105
-285,803	800,000	0,034	0,091
-284,789	195,798	-0,090	0,100
-283,774	325,292	0,070	0,099
-282,759	-75,230	0,112	-0,029
-281,745	-200,000	-0,047	0,184
-280,730	129,945	-0,080	-0,075
-279,716	800,000	0,038	-0,107
-278,701	-59,182	0,022	-0,007
-277,686	-200,000	-0,023	0,080
-276,672	559,515	-0,044	0,078
-275,657	471,441	-0,055	-0,090
-274,643	104,399	0,060	-0,051
-273,628	94,026	-0,044	-0,036
-272,613	-200,000	-0,025	-0,084
-271,599	-50,750	0,161	0,055
-270,584	-49,438	0,076	-0,026
-269,570	-177,866	0,025	0,000
-268,555	37,996	-0,066	-0,043
-267,540	44,994	-0,101	0,068
-266,526	298,014	0,118	-0,158
-265,511	800,000	-0,033	-0,086
-264,497	93,627	-0,091	0,075
-263,482	-166,727	0,084	-0,002
-262,467	341,062	0,069	0,099
-261,453	165,845	0,082	-0,084
-260,438	431,310	0,045	-0,072
-259,424	-165,947	-0,067	-0,002
-258,409	652,789	-0,067	0,126
-257,395	753,144	0,033	-0,066
-256,380	511,937	0,030	-0,052
-255,365	-133,997	0,081	-0,007
-254,351	-25,614	0,117	0,050
-253,336	-108,094	0,086	-0,013
-252,322	244,733	0,029	0,036
-251,307	-200,000	-0,016	-0,099
-250,292	-97,056	-0,047	0,009
-249,278	800,000	-0,030	0,073
-248,263	-200,000	-0,016	0,181
-247,249	-31,233	0,015	-0,006
-246,234	-0,957	-0,058	-0,030
-245,219	454,046	-0,037	-0,060
-244,205	-18,401	0,038	-0,017
-243,190	378,805	0,053	-0,080
-242,176	659,876	0,072	0,135
-241,161	-200,000	-0,017	0,237
-240,146	-154,403	0,110	-0,005
-239,132	-200,000	0,018	0,092
-238,117	-200,000	0,004	-0,036
-237,103	-29,038	0,047	0,020
-236,088	-105,047	-0,122	0,020
-235,073	800,000	0,024	-0,049
-234,059	383,715	0,041	0,061
-233,044	-112,510	-0,101	-0,014
-232,030	45,262	0,070	-0,047
-231,015	-57,604	0,091	0,029
-230,000	800,000	-0,024	0,074
-228,986	177,989	0,026	-0,028
-227,971	-35,096	0,052	-0,021
-226,957	-200,000	0,008	0,159
-225,942	-200,000	0,000	0,021
-224,927	675,283	0,037	-0,070
-223,913	-200,000	0,004	0,137
-222,898	93,107	0,099	0,081
-221,884	-200,000	-0,005	0,068
-220,869	-200,000	-0,043	-0,143
-219,855	60,602	0,055	0,039
-218,840	800,000	0,018	0,052
-217,825	555,327	-0,066	-0,116
-216,811	257,307	0,067	-0,085
-215,796	-17,325	0,066	0,030
-214,782	51,643	-0,056	-0,039
-213,767	212,563	-0,117	-0,135
-212,752	-200,000	-0,004	0,068
-211,738	800,000	0,023	-0,072
-210,723	10,208	0,006	-0,003
-209,709	-150,075	0,097	0,005
-208,694	-100,951	-0,094	-0,017
-207,679	432,678	-0,056	0,088
-206,665	169,749	0,035	0,036
-205,650	175,693	0,095	0,101
-204,636	-93,168	0,044	-0,009
-203,621	-92,041	0,061	0,013
-202,606	417,656	0,024	-0,037
-201,592	196,928	-0,113	-0,125
-200,577	68,609	-0,152	-0,113
-199,563	-200,000	0,002	-0,066
-198,548	-200,000	0,010	0,070
-197,533	800,000	0,007	0,018
-196,519	-182,844	0,034	0,000
-195,504	-182,180	-0,137	-0,002
-194,490	277,281	-0,025	-0,033
-193,475	165,320	-0,055	-0,056
-192,460	-200,000	-0,001	-0,007
-191,446	-59,130	0,138	0,043
-190,431	800,000	0,031	-0,092
-189,417	323,312	0,063	0,087
-188,402	-200,000	0,023	0,074
-187,387	82,937	-0,068	-0,054
-186,373	-0,061	-0,147	-0,076
-185,358	-200,000	0,005	-0,061
-184,344	-200,000	-0,001	-0,021
-183,329	-200,000	0,025	-0,123
-182,315	404,705	0,074	0,113
-181,300	554,363	-0,069	0,122
-180,285	-79,052	-0,040	-0,010
-179,271	196,755	-0,007	0,008
-178,256	800,000	0,088	0,181
-177,242	-200,000	0,023	-0,110
-176,227	140,679	0,057	-0,055
-175,212	146,482	0,113	0,110
-174,198	-146,424	0,098	0,006
-173,183	-38,413	0,085	0,033
-172,169	-72,323	0,101	-0,027
-171,154	-200,000	-0,019	0,124
-170,139	245,796	0,037	0,045
-169,125	446,382	0,055	0,088
-168,110	2,275	0,048	0,025
-167,096	-200,000	-0,011	-0,070
-166,081	-137,515	-0,140	-0,011
-165,066	53,159	0,101	-0,070
-164,052	-200,000	0,024	0,079
-163,037	14,817	0,171	0,097
-162,023	276,191	-0,016	0,020
-161,008	248,828	-0,009	-0,011
-159,993	-200,000	0,021	0,121
-158,979	800,000	-0,073	-0,164
-157,964	800,000	-0,025	-0,075
-156,950	50,052	-0,087	-0,060
-155,935	-200,000	-0,001	0,113
-154,920	-200,000	0,022	0,141
-153,906	-200,000	-0,005	0,122
-152,891	-200,000	0,001	-0,047
-151,877	-25,304	-0,142	-0,061
-150,862	715,405	0,047	-0,092
-149,847	-65,946	0,178	-0,051
-148,833	120,861	-0,036	0,032
-147,818	-50,131	0,156	-0,053
-146,804	227,268	0,025	-0,029
-145,789	-200,000	0,000	0,180
-144,775	-200,000	-0,005	-0,017
-143,760	0,227	-0,116	0,060
-142,745	621,011	-0,030	0,055
-141,731	89,361	0,073	-0,059
-140,716	166,326	0,095	0,098
-139,702	-82,282	0,134	-0,032
-138,687	-27,895	-0,039	-0,017
-137,672	605,490	0,045	-0,083
-136,658	42,770	-0,036	-0,024
-135,643	315,664	0,024	0,032
-134,629	-200,000	-0,034	-0,127
-133,614	-132,027	-0,164	-0,015
-132,599	19,160	0,065	-0,038
-131,585	-200,000	0,006	0,113
-130,570	-34,813	-0,065	0,025
-129,556	-200,000	-0,006	0,108
-128,541	15,002	-0,105	0,059
-127,526	30,663	0,049	0,031
-126,512	-87,040	0,010	0,002
-125,497	800,000	-0,017	-0,048
-124,483	-200,000	-0,024	-0,086
-123,468	-200,000	-0,051	-0,000
-122,453	410,896	-0,006	-0,010
-121,439	-1,706	-0,085	-0,043
-120,424	800,000	0,025	-0,069
