DTS Sentinel unit serial number:	SN410029Multiplexer serial number:	ORYXHardware model number:	OX2-SRSoftware version number:	ORYX F/W v4,00 Oryx Data Collector v3.7.2.0data status	okinstallation	B6 Nyhavnadifferential loss correction	single-endedforward channel	channel 2reverse channel	N/Adate	2023/12/10time	17:00:08forward acquisition time	300,00reverse acquisition time	0,00gamma	499,1914k internal	0,3123k external	0,3123temperature offset calibration	1,0000default loss term (dB/km)	0,3820temperature slope calibration	1,0000multiplexer offset coefficient	1,0000multiplexer slope coefficient	1,0000fibre end	0,00T internal ref (°C)	22,40T ext. ref 1 (°C)	6,15T ext. ref 2 (°C)	6,18length (m)	temperature (°C)	Stokes	anti-Stokes-744,400	-77,901	0,115	-0,029
-743,385	-167,911	-0,224	0,006
-742,371	732,012	0,016	0,031
-741,356	6,450	-0,224	0,124
-740,342	-200,000	-0,028	-0,108
-739,327	-170,666	-0,272	-0,007
-738,312	8,158	-0,083	-0,046
-737,298	-121,066	-0,306	0,038
-736,283	224,535	0,017	-0,021
-735,269	7,556	-0,172	0,095
-734,254	-19,628	0,051	-0,023
-733,239	38,457	-0,333	-0,221
-732,225	-36,240	0,098	0,039
-731,210	71,583	-0,065	-0,050
-730,196	800,000	0,015	-0,043
-729,181	149,818	-0,052	0,053
-728,167	800,000	0,064	-0,138
-727,152	800,000	-0,047	0,143
-726,137	800,000	-0,068	0,158
-725,123	-20,906	-0,162	0,074
-724,108	-36,644	-0,094	-0,037
-723,094	800,000	-0,029	-0,093
-722,079	122,446	-0,078	0,073
-721,064	-200,000	0,002	-0,091
-720,050	-65,607	-0,098	-0,029
-719,035	111,197	0,021	0,019
-718,021	426,722	-0,039	0,063
-717,006	258,414	-0,091	0,117
-715,991	631,366	0,078	-0,147
-714,977	-157,493	-0,146	0,006
-713,962	-30,612	-0,135	-0,056
-712,948	-52,255	0,062	-0,021
-711,933	-113,351	-0,080	0,012
-710,918	-120,035	-0,104	0,013
-709,904	-17,594	-0,073	-0,034
-708,889	-81,495	-0,158	-0,039
-707,875	-54,507	-0,122	-0,041
-706,860	-49,235	0,129	-0,046
-705,845	-55,164	0,093	-0,031
-704,831	-144,433	0,115	0,008
-703,816	-200,000	-0,005	0,035
-702,802	149,205	-0,046	-0,046
-701,787	105,399	-0,072	-0,063
-700,772	-200,000	-0,016	-0,173
-699,758	-141,923	0,047	-0,003
-698,743	-200,000	0,023	-0,130
-697,729	353,583	0,158	-0,235
-696,714	-62,218	0,039	-0,012
-695,699	147,610	-0,144	-0,144
-694,685	-65,673	-0,123	0,037
-693,670	-86,958	-0,061	0,014
-692,656	-175,220	0,100	-0,002
-691,641	121,554	-0,081	-0,076
-690,627	-200,000	0,017	0,065
-689,612	800,000	0,008	-0,018
-688,597	-200,000	-0,007	0,027
-687,583	-52,666	-0,136	-0,046
-686,568	63,234	0,045	0,034
-685,554	46,475	0,040	-0,027
-684,539	294,173	-0,075	0,102
-683,524	-161,758	0,096	-0,004
-682,510	-200,000	-0,001	-0,039
-681,495	-200,000	0,014	-0,053
-680,481	32,522	-0,082	-0,053
-679,466	555,104	0,057	-0,102
-678,451	-18,382	-0,057	-0,026
-677,437	241,533	-0,061	0,076
-676,422	-200,000	-0,003	0,035
-675,408	-200,000	-0,007	-0,055
-674,393	-93,026	-0,075	0,015
-673,378	-143,591	0,065	-0,005
-672,364	800,000	-0,017	-0,050
-671,349	161,756	0,025	-0,026
-670,335	209,699	0,022	-0,025
-669,320	800,000	-0,018	-0,057
-668,305	-137,597	0,091	-0,008
-667,291	-58,681	-0,176	0,056
-666,276	-128,210	-0,193	0,020
-665,262	-200,000	-0,003	-0,122
-664,247	-200,000	0,016	-0,094
-663,232	82,425	0,074	0,060
-662,218	-24,911	0,076	0,033
-661,203	800,000	0,053	0,110
-660,189	800,000	0,063	-0,152
-659,174	-111,374	-0,081	-0,012
-658,159	479,460	-0,033	-0,056
-657,145	348,763	0,047	0,069
-656,130	515,213	-0,039	-0,068
-655,116	386,335	0,070	0,107
-654,101	82,947	0,025	0,021
-653,086	39,442	-0,008	0,006
-652,072	-28,933	0,132	-0,056
-651,057	-200,000	-0,001	-0,120
-650,043	29,788	-0,056	-0,035
-649,028	118,058	0,016	0,014
-648,014	209,637	0,048	0,057
-646,999	-127,419	-0,076	0,008
-645,984	800,000	0,047	-0,117
-644,970	-136,410	0,058	-0,005
-643,955	-9,580	-0,115	-0,057
-642,941	-42,133	-0,090	-0,034
-641,926	235,490	0,066	-0,081
-640,911	447,468	0,017	0,027
-639,897	64,918	-0,077	-0,058
-638,882	-23,703	-0,045	-0,020
-637,868	-200,000	-0,008	0,100
-636,853	-22,421	-0,077	0,035
-635,838	-88,811	0,079	-0,017
-634,824	-41,068	-0,131	-0,050
-633,809	-177,127	-0,069	-0,001
-632,795	-200,000	0,012	-0,105
-631,780	-63,578	-0,108	0,033
-630,765	-200,000	0,004	0,108
-629,751	124,072	0,070	0,065
-628,736	297,743	-0,050	-0,069
-627,722	-200,000	-0,042	-0,146
-626,707	-31,106	0,059	-0,025
-625,692	-200,000	0,001	0,013
-624,678	-117,694	0,025	-0,003
-623,663	800,000	0,037	0,078
-622,649	-11,425	-0,210	-0,102
-621,634	-200,000	0,003	0,058
-620,619	-5,510	-0,163	-0,083
-619,605	-131,329	0,156	0,015
-618,590	800,000	0,036	-0,074
-617,576	122,119	0,063	-0,059
-616,561	-123,831	-0,180	0,021
-615,546	800,000	0,041	-0,092
-614,532	-200,000	-0,002	-0,085
-613,517	800,000	-0,046	-0,118
-612,503	672,155	0,039	-0,075
-611,488	-128,202	0,106	-0,011
-610,474	-200,000	0,024	0,079
-609,459	419,614	0,036	-0,057
-608,444	226,870	-0,053	0,064
-607,430	173,440	-0,040	-0,043
-606,415	164,319	-0,029	0,030
-605,401	30,942	-0,131	0,083
-604,386	-170,865	0,169	-0,004
-603,371	143,022	-0,047	0,046
-602,357	95,722	0,034	0,029
-601,342	-117,308	-0,165	0,022
-600,328	800,000	-0,044	-0,125
-599,313	-128,436	-0,117	0,012
-598,298	332,178	-0,050	-0,072
-597,284	388,225	0,041	-0,064
-596,269	178,591	-0,107	0,116
-595,255	-200,000	0,007	-0,104
-594,240	-200,000	-0,028	-0,128
-593,225	207,533	-0,052	-0,060
-592,211	187,084	-0,050	0,055
-591,196	-200,000	-0,034	-0,143
-590,182	173,837	0,059	-0,063
-589,167	800,000	-0,036	-0,079
-588,152	5,017	-0,122	0,067
-587,138	-99,288	-0,040	-0,007
-586,123	800,000	-0,019	0,045
-585,109	-37,763	-0,126	0,049
-584,094	-137,310	0,070	-0,006
-583,079	86,991	0,040	-0,033
-582,065	-34,311	0,068	0,028
-581,050	162,405	-0,033	0,034
-580,036	-200,000	-0,006	-0,145
-579,021	-200,000	0,007	-0,072
-578,006	-200,000	-0,028	-0,117
-576,992	-104,855	0,068	0,011
-575,977	-200,000	0,008	0,029
-574,963	80,729	-0,142	0,113
-573,948	400,192	-0,027	-0,042
-572,934	-200,000	-0,008	-0,088
-571,919	118,812	-0,087	-0,080
-570,904	-2,574	0,120	-0,062
-569,890	-146,192	0,017	-0,001
-568,875	-68,248	0,071	-0,020
-567,861	-200,000	0,000	0,068
-566,846	614,281	0,067	0,125
-565,831	44,099	-0,115	0,078
-564,817	68,734	-0,089	-0,067
-563,802	184,784	-0,092	-0,101
-562,788	-123,932	-0,173	-0,020
-561,773	-40,489	-0,072	0,028
-560,758	-200,000	-0,006	-0,101
-559,744	-200,000	0,027	0,113
-558,729	800,000	0,006	-0,016
-557,715	-200,000	-0,021	0,074
-556,700	27,812	-0,068	-0,043
-555,685	111,054	-0,092	0,082
-554,671	-37,690	0,096	-0,038
-553,656	84,215	-0,088	0,071
-552,642	408,505	0,058	-0,091
-551,627	213,210	-0,053	-0,062
-550,612	800,000	-0,017	-0,054
-549,598	192,113	-0,084	-0,094
-548,583	324,859	-0,006	0,008
-547,569	-200,000	0,040	-0,157
-546,554	-200,000	-0,026	-0,097
-545,539	-117,064	0,091	-0,012
-544,525	-200,000	0,011	0,143
-543,510	800,000	-0,030	-0,073
-542,496	-200,000	0,002	-0,061
-541,481	-101,891	0,081	-0,014
-540,466	-120,403	-0,019	0,002
-539,452	-161,553	0,093	0,003
-538,437	70,890	0,062	-0,047
-537,423	-129,525	-0,115	0,012
-536,408	-200,000	0,005	-0,033
-535,393	-200,000	0,019	-0,113
-534,379	-200,000	0,003	-0,065
-533,364	-99,375	0,093	-0,017
-532,350	-102,002	0,054	-0,009
-531,335	800,000	0,038	0,110
-530,321	800,000	0,023	0,051
-529,306	371,187	0,052	0,079
-528,291	201,832	-0,115	-0,131
-527,277	679,458	0,030	-0,057
-526,262	585,782	0,024	-0,043
-525,248	-49,885	0,085	0,030
-524,233	800,000	0,042	-0,131
-523,218	319,212	-0,025	-0,035
-522,204	-200,000	0,040	0,206
-521,189	-69,917	-0,085	-0,024
-520,175	800,000	-0,041	0,095
-519,160	-200,000	0,004	-0,047
-518,145	-41,950	0,098	0,037
-517,131	-200,000	0,032	-0,138
-516,116	-45,334	-0,052	-0,019
-515,102	-200,000	-0,002	0,097
-514,087	279,712	-0,008	0,011
-513,072	-200,000	0,015	-0,080
-512,058	190,248	-0,032	-0,035
-511,043	-50,490	-0,063	0,022
-510,029	29,975	0,180	0,113
-509,014	37,449	-0,074	0,049
-507,999	413,363	0,056	0,088
-506,985	-49,384	-0,146	-0,051
-505,970	-200,000	-0,026	-0,127
-504,956	387,687	-0,070	0,107
-503,941	-99,855	-0,113	0,021
-502,926	-82,746	0,202	-0,048
-501,912	608,289	0,028	-0,052
-500,897	268,369	0,028	0,036
-499,883	-26,784	-0,099	0,042
-498,868	-55,150	-0,089	-0,029
-497,853	101,112	-0,057	-0,049
-496,839	25,525	-0,123	-0,076
-495,824	128,960	0,083	0,078
-494,810	-6,740	-0,118	0,059
-493,795	78,810	-0,126	0,100
-492,781	-200,000	-0,006	-0,047
-491,766	19,112	-0,118	0,069
-490,751	-200,000	0,000	-0,092
-489,737	3,351	-0,154	0,083
-488,722	-82,513	0,120	-0,029
-487,708	-200,000	0,013	0,063
-486,693	-200,000	-0,001	0,069
-485,678	-200,000	-0,039	0,163
-484,664	-162,678	0,100	-0,004
-483,649	-123,079	-0,037	0,004
-482,635	-51,687	0,098	0,033
-481,620	43,442	0,082	-0,055
-480,605	121,876	0,014	-0,013
-479,591	35,259	0,068	-0,044
-478,576	-51,529	0,054	-0,018
-477,562	3,794	-0,081	-0,044
-476,547	-48,205	-0,075	-0,027
-475,532	22,842	-0,057	0,035
-474,518	-4,624	0,041	-0,021
-473,503	218,455	-0,021	-0,024
-472,489	560,315	0,034	0,060
-471,474	800,000	0,036	-0,082
-470,459	800,000	-0,032	0,090
-469,445	-200,000	-0,007	0,147
-468,430	137,333	-0,043	-0,041
-467,416	-38,547	0,157	0,061
-466,401	129,910	0,062	-0,058
-465,386	800,000	0,023	0,071
-464,372	-103,511	0,050	-0,009
-463,357	-111,404	0,090	-0,013
-462,343	68,774	-0,073	0,055
-461,328	277,142	0,036	0,047
-460,313	-135,473	0,037	-0,003
-459,299	-155,170	0,179	-0,008
-458,284	119,131	-0,009	-0,009
-457,270	-200,000	0,006	0,026
-456,255	-200,000	-0,005	0,094
-455,241	800,000	-0,064	0,135
-454,226	83,572	0,089	0,071
-453,211	17,641	0,053	-0,031
-452,197	-67,342	0,115	-0,033
-451,182	-109,231	0,147	0,023
-450,168	339,389	0,057	0,082
-449,153	749,664	0,052	0,105
-448,138	438,028	0,054	0,087
-447,124	67,400	-0,059	-0,044
-446,109	-27,897	0,107	-0,046
-445,095	143,431	-0,069	0,068
-444,080	124,673	0,057	0,053
-443,065	800,000	-0,073	0,203
-442,051	-143,331	-0,220	-0,015
-441,036	446,698	-0,061	0,099
-440,022	-200,000	0,020	0,072
-439,007	-131,016	0,079	0,008
-437,992	192,932	0,123	-0,137
-436,978	-159,785	0,129	-0,005
-435,963	800,000	-0,047	0,115
-434,949	-200,000	0,011	-0,049
-433,934	-200,000	-0,020	-0,102
-432,919	273,748	0,052	-0,068
-431,905	-76,050	-0,030	0,008
-430,890	149,769	0,119	-0,118
-429,876	315,175	0,077	0,108
-428,861	-200,000	-0,008	0,080
-427,846	-200,000	0,049	-0,163
-426,832	175,227	0,100	-0,107
-425,817	50,227	-0,138	-0,096
-424,803	182,027	-0,053	0,058
-423,788	333,389	-0,064	-0,092
-422,773	-41,172	-0,019	-0,007
-421,759	-17,592	0,061	-0,028
-420,744	88,289	0,088	0,072
-419,730	346,569	0,083	0,120
-418,715	-200,000	0,025	0,083
-417,701	800,000	-0,047	-0,138
-416,686	-200,000	-0,016	-0,075
-415,671	381,482	0,045	0,067
-414,657	-128,923	0,145	0,015
-413,642	800,000	-0,051	-0,117
-412,628	800,000	0,036	-0,085
-411,613	89,687	-0,098	-0,081
-410,598	109,533	0,078	-0,069
-409,584	682,475	0,094	-0,181
-408,569	42,549	0,024	-0,016
-407,555	52,719	-0,005	-0,003
-406,540	800,000	0,033	0,068
-405,525	26,119	-0,062	-0,038
-404,511	191,678	0,058	-0,064
-403,496	10,694	-0,098	0,055
-402,482	800,000	0,049	0,107
-401,467	-46,062	-0,166	0,060
-400,452	548,242	0,078	-0,139
-399,438	-113,432	0,079	-0,011
-398,423	-200,000	-0,013	-0,139
-397,409	249,319	-0,054	-0,068
-396,394	-200,000	0,006	-0,027
-395,379	65,565	0,056	0,042
-394,365	-200,000	-0,002	0,102
-393,350	21,604	0,064	0,038
-392,336	72,375	-0,036	0,028
-391,321	800,000	0,033	-0,089
-390,306	800,000	0,033	-0,069
-389,292	-200,000	-0,012	0,070
-388,277	199,278	-0,090	0,102
-387,263	395,841	0,074	0,115
-386,248	267,210	0,084	0,108
-385,233	-86,504	0,080	0,018
-384,219	800,000	0,025	-0,070
-383,204	-50,609	-0,091	0,031
-382,190	20,733	-0,092	-0,055
-381,175	-200,000	0,033	0,111
-380,160	129,800	-0,063	-0,059
-379,146	-21,245	0,153	0,068
-378,131	223,082	0,044	-0,052
-377,117	-142,076	0,153	-0,011
-376,102	-53,139	0,015	-0,005
-375,088	-190,210	-0,178	0,001
-374,073	-60,809	0,127	-0,039
-373,058	-120,314	0,024	-0,003
-372,044	-159,054	-0,083	0,003
-371,029	90,759	-0,074	0,061
-370,015	800,000	0,068	0,201
-369,000	461,044	0,030	0,050
-367,985	-30,623	-0,071	-0,029
-366,971	-23,758	-0,052	-0,023
-365,956	800,000	0,040	0,108
-364,942	39,634	0,195	0,128
-363,927	-200,000	-0,007	-0,042
-362,912	136,488	0,050	-0,048
-361,898	-125,314	-0,094	0,010
-360,883	122,754	-0,058	0,054
-359,869	-0,699	0,035	-0,018
-358,854	-132,334	-0,069	0,006
-357,839	-200,000	-0,007	0,045
-356,825	46,395	0,088	0,060
-355,810	305,214	-0,028	0,038
-354,796	-200,000	0,002	0,059
-353,781	143,663	-0,115	-0,113
-352,766	-149,540	-0,049	0,003
-351,752	123,024	-0,060	-0,055
-350,737	800,000	0,003	0,008
-349,723	800,000	0,020	0,063
-348,708	219,964	0,058	0,068
-347,693	692,864	0,081	0,157
-346,679	-200,000	-0,010	-0,045
-345,664	21,454	-0,073	-0,043
-344,650	-68,093	0,043	0,012
-343,635	800,000	0,060	0,150
-342,620	127,797	0,054	0,050
-341,606	-0,953	-0,173	-0,090
-340,591	-200,000	-0,035	0,120
-339,577	-200,000	0,008	0,061
-338,562	83,398	0,102	-0,082
-337,548	-59,816	0,082	-0,025
-336,533	-200,000	-0,019	0,130
-335,518	372,600	0,079	0,119
-334,504	800,000	-0,012	-0,040
-333,489	-75,672	-0,089	0,023
-332,475	-200,000	-0,015	-0,064
-331,460	31,800	0,045	-0,029
-330,445	246,525	0,011	0,014
-329,431	800,000	0,041	0,087
-328,416	446,794	0,015	0,024
-327,402	-80,343	0,085	-0,021
-326,387	-92,440	-0,088	-0,018
-325,372	154,814	-0,079	-0,080
-324,358	59,331	-0,067	-0,048
-323,343	800,000	-0,022	-0,059
-322,329	216,014	0,106	-0,124
-321,314	-91,819	0,071	-0,015
-320,299	89,451	-0,214	0,175
-319,285	-200,000	0,020	0,088
-318,270	82,338	0,060	-0,048
-317,256	-27,985	-0,099	-0,042
-316,241	189,768	0,067	-0,074
-315,226	189,530	0,023	0,026
-314,212	-200,000	0,023	0,105
-313,197	-115,117	0,175	0,024
-312,183	-68,570	-0,023	-0,006
-311,168	-109,514	-0,128	0,020
-310,153	155,972	-0,031	0,031
-309,139	800,000	0,036	-0,089
-308,124	128,363	0,088	-0,082
-307,110	-200,000	-0,002	-0,055
-306,095	-200,000	0,018	0,071
-305,080	142,195	-0,031	0,030
-304,066	-129,219	-0,089	0,009
-303,051	48,168	-0,103	-0,070
-302,037	217,969	0,027	-0,032
-301,022	-2,647	0,051	-0,026
-300,008	-200,000	0,003	0,021
-298,993	-158,268	-0,094	-0,004
-297,978	800,000	0,036	0,106
-296,964	-106,968	-0,010	-0,002
-295,949	547,162	-0,042	0,073
-294,935	-168,926	-0,070	0,002
-293,920	-1,793	-0,047	0,024
-292,905	534,944	-0,086	0,151
-291,891	-200,000	0,006	0,178
-290,876	-200,000	0,033	0,191
-289,862	-102,858	0,024	-0,004
-288,847	800,000	-0,056	-0,180
-287,832	-121,981	-0,155	0,018
-286,818	281,785	-0,055	0,072
-285,803	783,073	0,031	0,062
-284,789	495,867	-0,054	0,092
-283,774	104,814	0,105	0,091
-282,759	236,982	-0,018	-0,022
-281,745	35,726	-0,064	0,041
-280,730	307,651	0,022	-0,030
-279,716	74,621	0,010	0,008
-278,701	-186,353	-0,059	-0,001
-277,686	260,370	0,066	0,084
-276,672	106,368	-0,055	-0,048
-275,657	132,035	-0,075	0,071
-274,643	-20,923	-0,146	-0,065
-273,628	280,234	0,106	-0,139
-272,613	-120,970	-0,088	-0,011
-271,599	-1,190	0,027	-0,014
-270,584	-20,822	0,172	0,077
-269,570	-31,120	0,095	0,039
-268,555	-96,696	-0,112	-0,021
-267,540	800,000	-0,018	-0,058
-266,526	61,977	0,024	-0,017
-265,511	-33,153	0,032	0,013
-264,497	-200,000	-0,005	0,025
-263,482	-85,681	-0,044	0,010
-262,467	-110,996	0,071	0,011
-261,453	221,928	-0,077	-0,091
-260,438	29,314	-0,034	-0,021
-259,424	1,198	-0,069	-0,036
-258,409	-200,000	-0,024	0,093
-257,395	800,000	0,048	0,136
-256,380	285,638	0,030	-0,039
-255,365	-72,169	0,036	0,010
-254,351	-31,522	0,168	-0,069
-253,336	197,619	-0,050	-0,056
-252,322	39,863	-0,066	-0,043
-251,307	-200,000	0,028	-0,137
-250,292	89,168	-0,025	0,020
-249,278	346,425	0,009	0,013
-248,263	800,000	-0,062	-0,174
-247,249	-39,832	0,081	0,031
-246,234	-157,029	-0,077	0,003
-245,219	-35,745	0,103	-0,041
-244,205	5,377	0,108	-0,058
-243,190	-200,000	-0,013	0,151
-242,176	44,794	-0,010	-0,007
-241,161	191,043	-0,071	-0,078
-240,146	675,295	-0,050	0,095
-239,132	-88,644	0,106	-0,023
-238,117	128,683	-0,031	0,029
-237,103	-200,000	-0,007	0,030
-236,088	103,100	-0,041	0,035
-235,073	-200,000	-0,004	-0,016
-234,059	800,000	-0,031	0,075
-233,044	-5,493	0,076	0,038
-232,030	-14,719	-0,098	-0,046
-231,015	-99,026	0,042	0,008
-230,000	271,072	-0,087	-0,113
-228,986	-20,688	0,115	-0,051
-227,971	35,456	0,137	0,088
-226,957	404,935	0,055	-0,086
-225,942	210,157	-0,038	-0,044
-224,927	333,949	-0,043	0,061
-223,913	-200,000	-0,035	-0,126
-222,898	-186,780	-0,076	0,001
-221,884	-66,893	-0,052	0,015
-220,869	-197,381	0,170	0,001
-219,855	-74,443	-0,095	0,025
-218,840	123,610	0,070	-0,064
-217,825	19,788	0,064	0,038
-216,811	800,000	0,028	0,085
-215,796	-100,160	-0,064	0,011
-214,782	-30,976	0,171	-0,070
-213,767	-52,995	-0,033	-0,011
-212,752	190,436	-0,042	-0,046
-211,738	-200,000	0,004	0,098
-210,723	30,764	-0,066	0,041
-209,709	6,149	-0,056	-0,030
-208,694	-33,758	-0,117	0,047
-207,679	309,501	0,057	-0,078
-206,665	-200,000	0,001	0,055
-205,650	764,059	0,041	-0,081
-204,636	-200,000	-0,011	0,145
-203,621	-28,063	0,202	0,085
-202,606	-200,000	-0,035	0,130
-201,592	194,148	-0,056	0,061
-200,577	800,000	0,042	0,100
-199,563	-123,123	-0,078	0,009
-198,548	37,626	0,054	-0,035
-197,533	505,974	-0,031	0,053
-196,519	-44,073	-0,206	-0,075
-195,504	-84,578	0,034	0,008
-194,490	66,629	-0,114	-0,084
-193,475	-187,322	0,140	0,001
-192,460	-143,081	0,070	0,005
-191,446	-200,000	-0,009	0,084
-190,431	53,447	0,055	0,038
-189,417	-13,552	0,166	-0,078
-188,402	-200,000	-0,020	0,097
-187,387	295,164	-0,052	-0,069
-186,373	605,736	0,017	-0,031
-185,358	-143,921	0,073	-0,005
-184,344	-1,521	0,071	0,037
-183,329	-10,778	0,193	0,093
-182,315	162,148	0,051	-0,052
-181,300	-106,236	0,086	-0,014
-180,285	-89,505	-0,011	0,002
-179,271	35,614	-0,100	0,064
-178,256	227,014	0,056	-0,067
-177,242	800,000	-0,019	-0,042
-176,227	-73,159	-0,055	0,015
-175,212	-29,716	0,022	-0,009
-174,198	800,000	0,061	-0,178
-173,183	-70,508	0,129	-0,035
-172,169	-103,534	-0,038	-0,006
-171,154	-200,000	0,016	-0,054
-170,139	-4,946	0,089	-0,045
-169,125	124,898	0,021	-0,020
-168,110	800,000	-0,061	-0,125
-167,096	-83,730	-0,079	0,018
-166,081	-200,000	0,024	-0,086
-165,066	800,000	-0,038	-0,098
-164,052	251,700	-0,051	0,063
-163,037	-120,937	-0,148	-0,018
-162,023	800,000	0,044	-0,089
-161,008	405,543	0,048	0,074
-159,993	35,981	-0,110	0,071
-158,979	-200,000	0,003	-0,015
-157,964	-182,950	0,145	-0,002
-156,950	102,419	-0,036	-0,031
-155,935	417,982	-0,019	-0,029
-154,920	800,000	0,036	0,101
-153,906	344,797	0,042	0,061
-152,891	226,816	0,020	0,024
-151,877	-27,199	0,028	0,012
-150,862	-200,000	-0,036	0,117
-149,847	308,360	-0,028	0,038
-148,833	1,105	0,041	0,021
-147,818	257,671	0,064	0,080
-146,804	201,453	-0,093	0,104
-145,789	79,447	-0,038	-0,029
-144,775	-200,000	0,011	0,088
-143,760	-59,012	0,006	-0,002
-142,745	800,000	0,018	0,051
-141,731	-41,675	0,058	-0,022
-140,716	-200,000	-0,010	-0,056
-139,702	-200,000	-0,024	-0,131
-138,687	-129,182	0,153	0,015
-137,672	800,000	-0,074	0,162
-136,658	26,213	-0,070	0,042
-135,643	-76,932	-0,067	0,017
-134,629	470,857	0,011	-0,018
-133,614	24,784	0,101	0,061
-132,599	31,379	-0,061	0,038
-131,585	-54,941	0,138	0,045
-130,570	800,000	0,025	0,064
-129,556	800,000	-0,024	0,076
-128,541	64,396	-0,081	0,059
-127,526	18,997	0,105	0,061
-126,512	421,337	0,054	0,085
-125,497	-178,946	-0,040	-0,001
-124,483	126,369	-0,102	0,094
-123,468	42,525	0,115	-0,076
-122,453	157,895	-0,076	-0,077
-121,439	800,000	0,032	-0,088
-120,424	-200,000	0,016	-0,066
-119,410	-74,447	0,146	0,038
