DTS Sentinel unit serial number:	SN410029Multiplexer serial number:	ORYXHardware model number:	OX2-SRSoftware version number:	ORYX F/W v4,00 Oryx Data Collector v3.7.2.0data status	okinstallation	B6 Nyhavnadifferential loss correction	single-endedforward channel	channel 2reverse channel	N/Adate	2023/12/09time	08:45:08forward acquisition time	300,00reverse acquisition time	0,00gamma	499,1914k internal	0,3138k external	0,3138temperature offset calibration	1,0000default loss term (dB/km)	0,3820temperature slope calibration	1,0000multiplexer offset coefficient	1,0000multiplexer slope coefficient	1,0000fibre end	0,00T internal ref (°C)	18,47T ext. ref 1 (°C)	1,95T ext. ref 2 (°C)	1,94length (m)	temperature (°C)	Stokes	anti-Stokes-744,400	290,217	0,073	-0,099
-743,385	-140,628	-0,331	0,025
-742,371	-106,813	0,061	-0,010
-741,356	-72,949	-0,220	0,060
-740,342	46,042	0,175	0,120
-739,327	-27,245	-0,239	-0,103
-738,312	800,000	0,040	-0,086
-737,298	-7,512	-0,253	0,126
-736,283	113,434	0,064	-0,058
-735,269	-65,296	-0,263	0,078
-734,254	-63,320	0,117	0,036
-733,239	-75,328	-0,462	-0,121
-732,225	-55,245	0,168	0,056
-731,210	-106,916	-0,045	-0,007
-730,196	21,946	-0,030	0,018
-729,181	800,000	-0,025	0,066
-728,167	119,680	-0,036	0,033
-727,152	-31,771	-0,125	0,052
-726,137	800,000	0,004	0,012
-725,123	800,000	-0,044	-0,114
-724,108	-200,000	0,021	-0,082
-723,094	-200,000	-0,016	-0,165
-722,079	48,362	-0,058	0,040
-721,064	-68,410	0,084	0,024
-720,050	800,000	0,014	0,046
-719,035	-124,103	-0,158	-0,018
-718,021	-103,978	-0,137	0,023
-717,006	-140,490	-0,131	0,010
-715,991	125,365	-0,062	-0,058
-714,977	-31,152	-0,068	0,028
-713,962	-200,000	0,001	0,047
-712,948	2,107	0,026	0,014
-711,933	-138,464	-0,095	-0,008
-710,918	-200,000	-0,001	0,037
-709,904	3,168	-0,085	0,046
-708,889	-113,574	-0,170	-0,024
-707,875	27,369	-0,096	0,060
-706,860	282,367	-0,057	-0,076
-705,845	656,246	0,066	0,126
-704,831	348,349	-0,046	0,067
-703,816	800,000	0,015	0,033
-702,802	-14,016	-0,050	-0,024
-701,787	-88,647	-0,034	-0,007
-700,772	741,053	-0,020	-0,041
-699,758	762,628	-0,023	0,046
-698,743	800,000	-0,021	-0,048
-697,729	157,904	-0,025	0,026
-696,714	-111,528	0,198	-0,029
-695,699	-140,934	0,018	-0,001
-694,685	227,463	-0,103	-0,124
-693,670	261,447	-0,053	-0,068
-692,656	17,886	-0,116	0,068
-691,641	-200,000	-0,005	-0,162
-690,627	-200,000	0,000	0,025
-689,612	597,949	0,002	0,003
-688,597	-200,000	0,002	0,015
-687,583	-29,120	-0,136	-0,057
-686,568	-200,000	-0,011	-0,173
-685,554	800,000	-0,043	-0,123
-684,539	151,800	0,024	-0,025
-683,524	49,411	-0,080	0,056
-682,510	-180,190	0,109	0,002
-681,495	752,449	0,039	-0,079
-680,481	800,000	-0,011	0,033
-679,466	-200,000	-0,003	0,041
-678,451	-200,000	-0,001	0,064
-677,437	-75,627	-0,129	-0,034
-676,422	-198,661	-0,062	0,000
-675,408	-69,961	-0,236	0,066
-674,393	-17,278	0,118	0,055
-673,378	-200,000	0,016	-0,055
-672,364	800,000	0,014	-0,033
-671,349	577,793	0,012	0,022
-670,335	362,905	-0,064	-0,096
-669,320	115,832	0,054	0,049
-668,305	800,000	-0,023	0,056
-667,291	800,000	0,063	0,138
-666,276	-200,000	0,000	-0,127
-665,262	-73,444	-0,094	-0,025
-664,247	59,641	-0,069	0,050
-663,232	168,089	0,066	-0,070
-662,218	112,196	-0,088	-0,079
-661,203	-113,499	0,074	0,011
-660,189	-5,129	-0,116	-0,059
-659,174	113,441	-0,072	-0,065
-658,159	800,000	-0,066	-0,161
-657,145	-41,632	-0,062	0,023
-656,130	-200,000	-0,018	0,141
-655,116	800,000	0,046	0,130
-654,101	86,518	0,076	-0,062
-653,086	-200,000	-0,008	0,050
-652,072	-200,000	-0,020	-0,128
-651,057	26,059	-0,121	-0,074
-650,043	-200,000	-0,027	-0,184
-649,028	800,000	0,029	-0,074
-648,014	-200,000	-0,017	0,082
-646,999	-200,000	-0,005	-0,033
-645,984	794,800	-0,028	0,057
-644,970	800,000	-0,026	-0,075
-643,955	163,505	-0,086	0,089
-642,941	-200,000	-0,006	-0,163
-641,926	800,000	0,035	-0,075
-640,911	-200,000	-0,001	-0,014
-639,897	-80,961	0,096	0,023
-638,882	-64,378	-0,082	-0,024
-637,868	172,100	0,025	0,027
-636,853	-169,048	-0,069	0,002
-635,838	800,000	0,032	-0,100
-634,824	195,804	-0,020	-0,023
-633,809	800,000	-0,057	-0,142
-632,795	-200,000	-0,002	-0,030
-631,780	159,434	0,019	-0,020
-630,765	-72,833	-0,049	0,013
-629,751	41,331	-0,114	-0,076
-628,736	25,999	0,034	-0,021
-627,722	-138,402	0,054	0,004
-626,707	-72,624	0,128	-0,035
-625,692	111,286	0,033	0,029
-624,678	-6,073	0,072	0,036
-623,663	-200,000	0,003	0,061
-622,649	-200,000	0,002	-0,077
-621,634	-111,142	-0,141	0,021
-620,619	614,901	-0,049	-0,091
-619,605	135,524	0,108	0,104
-618,590	-200,000	-0,012	0,065
-617,576	93,578	0,053	-0,044
-616,561	-107,131	-0,101	0,016
-615,546	182,408	-0,025	0,027
-614,532	522,137	-0,066	-0,115
-613,517	40,965	-0,086	-0,057
-612,503	-200,000	-0,006	0,059
-611,488	800,000	0,020	-0,045
-610,474	174,809	0,112	0,119
-609,459	-61,071	-0,082	0,026
-608,444	62,594	0,119	0,088
-607,430	-139,274	0,120	-0,009
-606,415	445,889	0,041	-0,067
-605,401	800,000	0,011	-0,032
-604,386	40,100	0,080	0,053
-603,371	800,000	-0,078	0,160
-602,357	-200,000	-0,027	0,112
-601,342	0,398	0,062	-0,032
-600,328	110,867	-0,114	-0,101
-599,313	-33,626	-0,101	-0,041
-598,298	-200,000	0,001	0,059
-597,284	800,000	-0,012	0,038
-596,269	-45,768	0,090	0,033
-595,255	230,151	-0,080	0,097
-594,240	-190,908	-0,067	-0,001
-593,225	-164,871	0,062	-0,002
-592,211	106,414	-0,170	-0,149
-591,196	-113,866	-0,216	0,031
-590,182	156,734	0,025	0,026
-589,167	800,000	0,037	0,088
-588,152	800,000	-0,043	0,101
-587,138	-94,026	0,116	0,023
-586,123	-200,000	-0,007	-0,028
-585,109	247,231	0,116	-0,145
-584,094	-200,000	0,002	-0,071
-583,079	-127,992	0,064	0,007
-582,065	800,000	-0,020	-0,043
-581,050	-83,351	0,134	-0,031
-580,036	-159,577	-0,066	-0,003
-579,021	-69,101	-0,068	-0,019
-578,006	-55,366	0,054	0,018
-576,992	-10,736	-0,109	-0,053
-575,977	-79,728	0,127	-0,031
-574,963	-128,771	-0,147	-0,015
-573,948	-200,000	0,017	-0,172
-572,934	632,780	-0,050	-0,094
-571,919	800,000	-0,073	-0,162
-570,904	35,660	-0,073	0,047
-569,890	26,771	-0,063	-0,039
-568,875	-200,000	-0,005	0,141
-567,861	-200,000	0,013	-0,104
-566,846	-85,900	0,039	-0,009
-565,831	512,804	-0,055	-0,095
-564,817	721,566	-0,043	-0,084
-563,802	-54,477	-0,116	-0,039
-562,788	-200,000	-0,007	0,059
-561,773	283,823	0,060	0,080
-560,758	380,783	-0,052	-0,078
-559,744	-88,038	-0,086	0,019
-558,729	-86,213	-0,080	-0,018
-557,715	183,187	0,050	-0,054
-556,700	170,205	-0,107	-0,113
-555,685	66,140	-0,017	0,012
-554,671	-102,183	0,117	-0,020
-553,656	-200,000	-0,025	0,099
-552,642	216,091	0,066	0,078
-551,627	107,653	-0,072	-0,063
-550,612	-200,000	-0,024	-0,114
-549,598	-68,964	-0,040	-0,011
-548,583	141,965	0,091	-0,089
-547,569	-91,547	-0,037	0,008
-546,554	342,697	0,040	0,058
-545,539	62,469	0,142	-0,104
-544,525	151,542	-0,097	0,097
-543,510	-200,000	0,018	0,064
-542,496	-9,052	-0,183	-0,090
-541,481	326,020	-0,047	-0,066
-540,466	-200,000	0,045	-0,160
-539,452	-200,000	0,016	-0,085
-538,437	73,929	0,072	-0,055
-537,423	37,168	0,109	-0,071
-536,408	215,288	-0,050	-0,058
-535,393	168,092	-0,078	-0,081
-534,379	-35,810	0,071	0,028
-533,364	90,168	0,199	-0,163
-532,350	-200,000	0,036	0,118
-531,335	-200,000	0,018	-0,109
-530,321	169,605	-0,068	0,072
-529,306	146,318	-0,059	-0,058
-528,291	201,783	-0,016	-0,018
-527,277	800,000	0,041	-0,095
-526,262	29,839	-0,083	0,052
-525,248	-161,012	0,062	-0,002
-524,233	-200,000	0,042	0,148
-523,218	205,007	-0,008	0,010
-522,204	238,541	-0,092	0,112
-521,189	-200,000	0,003	-0,081
-520,175	-200,000	-0,012	0,070
-519,160	46,242	0,078	-0,053
-518,145	93,851	-0,016	-0,013
-517,131	37,070	0,129	0,084
-516,116	-200,000	0,002	-0,009
-515,102	-50,316	0,080	0,028
-514,087	-54,648	-0,069	0,023
-513,072	-83,042	0,040	-0,009
-512,058	518,944	-0,048	0,084
-511,043	-200,000	0,000	-0,080
-510,029	-200,000	-0,012	-0,140
-509,014	9,732	0,043	-0,024
-507,999	135,687	-0,067	-0,065
-506,985	-62,309	-0,053	-0,016
-505,970	-200,000	-0,003	-0,035
-504,956	800,000	-0,047	-0,111
-503,941	240,190	0,050	-0,062
-502,926	510,735	-0,081	0,140
-501,912	-120,362	0,091	-0,011
-500,897	800,000	-0,048	0,113
-499,883	-109,374	0,060	-0,009
-498,868	200,416	-0,036	-0,041
-497,853	247,020	-0,038	-0,047
-496,839	-200,000	-0,002	0,075
-495,824	749,601	0,017	-0,033
-494,810	-81,164	0,081	-0,019
-493,795	-200,000	0,030	0,147
-492,781	329,110	-0,060	0,084
-491,766	55,693	0,108	-0,077
-490,751	-200,000	-0,002	-0,039
-489,737	-200,000	0,012	0,075
-488,722	-200,000	0,045	0,163
-487,708	365,991	-0,017	0,025
-486,693	148,866	0,008	0,008
-485,678	800,000	0,008	-0,021
-484,664	152,085	0,069	0,070
-483,649	800,000	-0,049	0,118
-482,635	-48,055	-0,018	0,006
-481,620	-200,000	0,003	-0,045
-480,605	711,618	0,053	0,104
-479,591	160,813	0,123	0,126
-478,576	581,069	-0,059	-0,106
-477,562	-200,000	-0,035	-0,163
-476,547	800,000	0,075	-0,196
-475,532	62,633	-0,031	-0,023
-474,518	-200,000	-0,032	0,180
-473,503	18,232	0,095	0,055
-472,489	65,850	0,044	0,033
-471,474	-104,170	0,077	-0,013
-470,459	-42,088	-0,146	0,054
-469,445	5,865	-0,052	0,028
-468,430	-24,263	0,162	-0,070
-467,416	-200,000	-0,008	-0,062
-466,401	-200,000	-0,013	0,124
-465,386	800,000	-0,024	0,061
-464,372	109,140	0,110	0,097
-463,357	-106,604	-0,136	-0,022
-462,343	115,587	-0,035	-0,031
-461,328	800,000	-0,022	0,045
-460,313	800,000	0,077	0,217
-459,299	-200,000	0,032	-0,207
-458,284	-200,000	-0,010	0,080
-457,270	-125,031	-0,022	0,002
-456,255	26,312	0,052	-0,032
-455,241	164,009	-0,068	-0,070
-454,226	64,338	-0,102	0,075
-453,211	-200,000	-0,040	0,158
-452,197	-200,000	0,004	-0,045
-451,182	173,062	0,097	-0,103
-450,168	232,808	-0,087	0,105
-449,153	800,000	-0,022	-0,057
-448,138	24,020	-0,100	0,060
-447,124	800,000	0,020	0,042
-446,109	-65,483	0,157	0,046
-445,095	-41,592	0,149	0,056
-444,080	-200,000	-0,043	0,196
-443,065	-200,000	-0,007	-0,051
-442,051	43,079	0,047	-0,031
-441,036	197,660	-0,095	-0,106
-440,022	262,526	0,129	-0,164
-439,007	132,779	0,137	0,130
-437,992	-145,286	-0,143	-0,009
-436,978	-200,000	-0,030	0,151
-435,963	121,654	-0,115	0,105
-434,949	-200,000	-0,008	0,097
-433,934	-200,000	-0,020	-0,071
-432,919	772,888	0,036	-0,073
-431,905	375,688	-0,067	-0,100
-430,890	244,552	0,055	0,068
-429,876	135,683	-0,023	0,022
-428,861	-125,834	0,186	-0,020
-427,846	-164,030	-0,090	-0,003
-426,832	454,022	-0,093	-0,151
-425,817	-200,000	0,002	-0,026
-424,803	166,875	0,067	-0,070
-423,788	-200,000	0,005	0,096
-422,773	-200,000	0,008	-0,092
-421,759	-200,000	-0,010	0,063
-420,744	-200,000	-0,002	-0,035
-419,730	-121,075	-0,035	0,004
-418,715	24,437	0,024	-0,015
-417,701	800,000	0,010	-0,031
-416,686	-24,951	0,103	0,044
-415,671	-200,000	0,045	0,000
-414,657	-153,106	-0,130	-0,007
-413,642	-78,513	0,071	-0,018
-412,628	-200,000	0,022	-0,145
-411,613	576,796	-0,015	-0,027
-410,598	175,612	0,034	0,036
-409,584	203,770	-0,037	0,042
-408,569	142,924	0,050	0,049
-407,555	-54,683	-0,093	-0,031
-406,540	-14,972	0,076	0,036
-405,525	800,000	0,031	-0,073
-404,511	-93,311	-0,046	-0,009
-403,496	113,498	-0,075	0,066
-402,482	-57,436	-0,095	0,030
-401,467	-11,511	0,091	-0,044
-400,452	61,869	-0,087	0,063
-399,438	-200,000	-0,001	-0,008
-398,423	800,000	-0,015	0,045
-397,409	541,907	-0,026	0,045
-396,394	224,343	-0,062	-0,074
-395,379	-50,972	-0,108	-0,037
-394,365	36,760	-0,045	0,029
-393,350	-62,623	0,071	0,022
-392,336	-49,817	0,119	0,041
-391,321	-200,000	0,010	0,144
-390,306	44,115	-0,082	0,055
-389,292	-150,557	-0,125	-0,007
-388,277	-101,738	-0,167	-0,029
-387,263	75,089	-0,064	0,049
-386,248	-0,334	0,077	0,040
-385,233	302,958	-0,081	-0,110
-384,219	-77,652	-0,109	-0,027
-383,204	-87,973	-0,060	-0,013
-382,190	-142,951	-0,225	-0,016
-381,175	51,070	-0,140	0,097
-380,160	-79,123	0,116	0,029
-379,146	256,797	0,037	0,047
-378,131	112,967	0,147	0,131
-377,117	-23,849	0,036	-0,016
-376,102	-200,000	-0,003	-0,051
-375,088	-200,000	-0,032	-0,103
-374,073	63,412	-0,121	-0,089
-373,058	-108,733	0,170	0,026
-372,044	552,681	0,041	0,072
-371,029	-200,000	-0,032	-0,122
-370,015	-200,000	0,002	-0,125
-369,000	518,372	0,041	0,070
-367,985	96,717	-0,082	0,069
-366,971	-200,000	0,055	0,188
-365,956	679,043	0,035	-0,068
-364,942	208,674	-0,075	0,086
-363,927	-200,000	0,022	0,175
-362,912	-96,779	-0,040	-0,008
-361,898	186,905	0,115	0,125
-360,883	-30,922	0,044	0,018
-359,869	-95,379	0,109	-0,021
-358,854	81,280	-0,089	0,071
-357,839	-143,023	0,216	0,015
-356,825	800,000	0,022	0,057
-355,810	-46,973	-0,086	0,030
-354,796	65,982	-0,091	-0,067
-353,781	525,871	0,066	-0,114
-352,766	-104,180	0,016	0,003
-351,752	56,569	0,023	-0,017
-350,737	-82,702	0,053	-0,012
-349,723	-200,000	-0,000	-0,015
-348,708	-200,000	-0,015	0,186
-347,693	-71,028	-0,090	-0,025
-346,679	800,000	-0,048	-0,111
-345,664	69,575	0,093	-0,070
-344,650	-194,885	0,086	0,000
-343,635	398,418	0,056	-0,086
-342,620	800,000	0,080	0,195
-341,606	-93,885	0,070	0,014
-340,591	22,336	-0,087	-0,052
-339,577	419,702	-0,038	-0,059
-338,562	-112,565	0,049	0,007
-337,548	-200,000	-0,012	0,127
-336,533	-41,814	-0,136	0,051
-335,518	-6,310	0,059	0,029
-334,504	-47,412	-0,083	-0,029
-333,489	421,849	0,029	0,046
-332,475	504,074	-0,086	0,146
-331,460	-121,691	-0,084	-0,010
-330,445	83,078	-0,035	-0,028
-329,431	-85,101	0,076	-0,017
-328,416	-200,000	-0,024	0,114
-327,402	-200,000	-0,003	0,057
-326,387	-200,000	-0,007	0,030
-325,372	-200,000	-0,004	0,047
-324,358	-200,000	-0,031	-0,113
-323,343	35,686	0,038	-0,024
-322,329	-69,146	0,073	0,020
-321,314	-200,000	-0,002	0,079
-320,299	-29,528	0,141	-0,058
-319,285	158,597	-0,018	-0,018
-318,270	-135,679	-0,058	-0,005
-317,256	340,663	-0,086	-0,123
-316,241	96,463	0,075	0,062
-315,226	92,106	-0,048	-0,039
-314,212	-87,772	-0,185	0,040
-313,197	800,000	0,025	-0,074
-312,183	-71,958	-0,142	0,038
-311,168	63,687	0,127	-0,093
-310,153	-200,000	-0,023	-0,094
-309,139	144,800	-0,104	-0,101
-308,124	210,518	-0,052	-0,059
-307,110	-63,552	0,131	0,039
-306,095	217,107	0,020	-0,023
-305,080	82,936	0,061	0,049
-304,066	287,008	0,038	-0,050
-303,051	-200,000	-0,023	-0,082
-302,037	-200,000	-0,021	-0,087
-301,022	-48,720	0,174	0,061
-300,008	59,306	0,180	0,129
-298,993	-110,403	-0,087	-0,013
-297,978	18,080	-0,151	0,088
-296,964	-143,937	-0,084	-0,006
-295,949	-200,000	-0,003	0,026
-294,935	134,728	-0,076	-0,072
-293,920	-71,651	0,108	0,029
-292,905	-200,000	0,009	0,076
-291,891	436,816	0,060	-0,095
-290,876	176,792	0,054	0,058
-289,862	215,163	0,042	-0,048
-288,847	58,407	-0,082	0,059
-287,832	498,442	-0,072	-0,122
-286,818	162,646	0,098	-0,100
-285,803	-77,377	0,099	0,025
-284,789	491,397	-0,040	-0,067
-283,774	-88,705	-0,081	0,017
-282,759	69,674	-0,039	0,029
-281,745	800,000	-0,046	0,138
-280,730	-43,221	-0,051	0,019
-279,716	108,526	-0,043	-0,037
-278,701	-12,508	-0,120	-0,057
-277,686	800,000	0,046	-0,100
-276,672	-116,750	-0,036	-0,005
-275,657	-58,586	0,011	0,003
-274,643	800,000	0,090	-0,188
-273,628	544,540	-0,020	0,035
-272,613	384,216	0,023	0,035
-271,599	309,926	-0,090	0,123
-270,584	-200,000	-0,005	0,101
-269,570	-121,753	-0,155	-0,018
-268,555	37,561	0,165	-0,106
-267,540	-200,000	0,009	0,044
-266,526	800,000	-0,007	0,017
-265,511	413,929	0,043	-0,067
-264,497	6,066	0,067	-0,036
-263,482	800,000	0,024	0,051
-262,467	-200,000	-0,014	0,109
-261,453	800,000	0,059	-0,123
-260,438	236,156	-0,006	-0,007
-259,424	800,000	-0,029	0,079
-258,409	-29,572	-0,044	0,018
-257,395	-200,000	0,036	0,143
-256,380	-200,000	0,000	-0,084
-255,365	758,828	0,047	0,093
-254,351	-95,446	0,088	-0,017
-253,336	100,759	0,046	0,039
-252,322	-200,000	0,010	-0,064
-251,307	-200,000	0,005	0,078
-250,292	-200,000	0,018	-0,059
-249,278	800,000	0,034	-0,092
-248,263	800,000	-0,058	0,155
-247,249	800,000	0,060	0,129
-246,234	101,943	-0,079	0,067
-245,219	52,687	0,074	0,051
-244,205	90,805	-0,091	-0,074
-243,190	28,524	0,085	-0,052
-242,176	502,144	0,040	0,067
-241,161	476,001	-0,095	0,157
-240,146	-200,000	-0,017	-0,069
-239,132	-80,474	0,038	-0,009
-238,117	-200,000	0,008	-0,042
-237,103	361,537	0,036	0,052
-236,088	800,000	0,033	0,082
-235,073	-101,176	0,103	0,018
-234,059	-124,330	-0,214	-0,024
-233,044	-121,270	0,101	-0,012
-232,030	-129,879	-0,168	-0,017
-231,015	-146,551	0,034	0,002
-230,000	11,397	-0,032	0,018
-228,986	486,746	-0,011	0,018
-227,971	-129,913	0,005	-0,001
-226,957	285,274	0,048	0,063
-225,942	-200,000	0,014	0,109
-224,927	-110,721	0,092	0,014
-223,913	-200,000	0,026	0,099
-222,898	-36,751	-0,136	-0,053
-221,884	800,000	0,052	0,142
-220,869	-115,162	-0,085	-0,012
-219,855	398,243	0,069	-0,105
-218,840	-116,726	0,142	0,019
-217,825	5,743	-0,018	0,010
-216,811	-27,942	-0,075	-0,031
-215,796	-200,000	0,007	-0,205
-214,782	292,999	0,054	-0,072
-213,767	-80,157	0,130	-0,031
-212,752	193,171	0,096	0,105
-211,738	-9,914	-0,064	0,031
-210,723	800,000	0,043	0,117
-209,709	-83,681	-0,103	0,024
-208,694	-200,000	0,009	0,081
-207,679	-56,769	0,135	-0,043
-206,665	800,000	-0,024	-0,064
-205,650	756,248	0,023	-0,046
-204,636	565,270	0,050	0,088
-203,621	-75,336	0,160	-0,041
-202,606	-200,000	-0,007	-0,146
-201,592	-83,733	0,091	-0,021
-200,577	800,000	0,045	-0,101
-199,563	341,550	0,051	0,072
-198,548	800,000	-0,011	-0,029
-197,533	800,000	0,020	0,052
-196,519	94,743	0,059	-0,049
-195,504	-74,193	-0,165	0,043
-194,490	242,057	-0,040	-0,048
-193,475	-200,000	-0,003	-0,065
-192,460	-148,914	-0,137	0,008
-191,446	-14,532	-0,184	0,086
-190,431	263,766	0,147	0,186
-189,417	457,618	0,022	0,036
-188,402	-102,566	-0,021	0,004
-187,387	179,601	-0,091	0,097
-186,373	800,000	0,045	-0,118
-185,358	-200,000	0,017	0,090
-184,344	90,383	0,020	-0,016
-183,329	131,540	0,104	0,097
-182,315	-200,000	-0,016	0,074
-181,300	-200,000	-0,020	0,077
-180,285	-60,857	-0,049	-0,015
-179,271	488,913	0,051	-0,084
-178,256	800,000	-0,035	-0,085
-177,242	347,158	-0,110	0,158
-176,227	-200,000	0,012	0,048
-175,212	-200,000	-0,027	-0,142
-174,198	428,758	0,056	-0,088
-173,183	500,745	0,056	-0,094
-172,169	800,000	-0,043	-0,137
-171,154	76,565	-0,064	0,049
-170,139	17,488	0,122	-0,070
-169,125	149,326	0,081	0,080
-168,110	800,000	-0,015	-0,031
-167,096	116,006	0,076	0,068
-166,081	446,857	0,015	-0,025
-165,066	21,302	-0,070	0,041
-164,052	-200,000	-0,048	-0,154
-163,037	-13,627	0,069	-0,032
-162,023	-200,000	-0,005	-0,040
-161,008	-200,000	-0,012	-0,051
-159,993	-200,000	0,013	0,074
-158,979	12,963	-0,035	-0,020
-157,964	800,000	-0,073	-0,164
-156,950	800,000	0,004	0,012
-155,935	66,515	0,047	-0,034
-154,920	-122,353	0,020	-0,002
-153,906	264,456	0,083	0,106
-152,891	26,889	0,082	-0,050
-151,877	-200,000	-0,032	-0,107
-150,862	156,286	0,019	-0,019
-149,847	25,787	0,046	0,028
-148,833	231,230	0,076	0,091
-147,818	-98,413	0,132	0,024
-146,804	238,228	0,032	-0,039
-145,789	-20,714	0,131	0,058
-144,775	-200,000	-0,008	0,117
-143,760	318,529	-0,120	-0,165
-142,745	-102,118	0,081	0,014
-141,731	-200,000	-0,004	-0,127
-140,716	-200,000	-0,004	0,065
-139,702	800,000	-0,024	0,072
-138,687	800,000	0,049	0,114
-137,672	71,845	-0,086	-0,065
-136,658	-56,222	-0,125	-0,040
-135,643	-78,100	-0,133	0,033
-134,629	-157,561	0,064	0,003
-133,614	39,475	0,108	0,070
-132,599	44,518	-0,092	0,061
-131,585	62,745	0,074	0,054
-130,570	-62,426	-0,149	-0,045
-129,556	-59,631	0,089	0,027
-128,541	-200,000	0,015	-0,052
-127,526	800,000	0,028	0,084
-126,512	376,929	0,023	0,034
-125,497	-200,000	-0,044	-0,160
-124,483	-162,775	0,045	0,002
-123,468	-200,000	0,020	0,078
-122,453	116,554	0,080	0,071
-121,439	-200,000	-0,001	0,047
-120,424	636,169	-0,047	0,086
