DTS Sentinel unit serial number:	SN410029Multiplexer serial number:	ORYXHardware model number:	OX2-SRSoftware version number:	ORYX F/W v4,00 Oryx Data Collector v3.7.2.0data status	okinstallation	B6 Nyhavnadifferential loss correction	single-endedforward channel	channel 2reverse channel	N/Adate	2023/12/10time	09:40:08forward acquisition time	300,00reverse acquisition time	0,00gamma	499,1914k internal	0,3123k external	0,3123temperature offset calibration	1,0000default loss term (dB/km)	0,3820temperature slope calibration	1,0000multiplexer offset coefficient	1,0000multiplexer slope coefficient	1,0000fibre end	0,00T internal ref (°C)	22,54T ext. ref 1 (°C)	6,33T ext. ref 2 (°C)	6,34length (m)	temperature (°C)	Stokes	anti-Stokes-744,400	-89,815	-0,041	0,009
-743,385	357,267	-0,134	0,200
-742,371	278,797	0,037	-0,049
-741,356	-43,744	-0,258	0,097
-740,342	548,523	0,079	0,142
-739,327	111,704	-0,207	0,186
-738,312	23,075	-0,059	-0,036
-737,298	-155,211	-0,246	0,012
-736,283	26,041	0,099	-0,062
-735,269	18,424	-0,128	0,076
-734,254	569,530	0,043	-0,078
-733,239	-193,298	-0,391	-0,002
-732,225	800,000	-0,042	0,129
-731,210	-14,876	0,067	0,032
-730,196	800,000	0,045	-0,131
-729,181	-106,827	0,114	-0,019
-728,167	207,103	0,038	-0,044
-727,152	-200,000	0,032	0,111
-726,137	-38,740	0,048	-0,019
-725,123	-35,095	-0,146	-0,059
-724,108	39,709	-0,109	-0,073
-723,094	-200,000	0,030	-0,141
-722,079	209,140	-0,099	-0,116
-721,064	10,247	-0,070	0,040
-720,050	597,252	0,067	-0,125
-719,035	64,521	0,124	-0,093
-718,021	-120,534	-0,080	0,010
-717,006	800,000	-0,024	0,078
-715,991	-141,316	0,052	-0,004
-714,977	-11,423	-0,102	-0,050
-713,962	-200,000	0,013	0,051
-712,948	-200,000	-0,004	0,109
-711,933	146,243	0,034	0,034
-710,918	224,836	-0,063	0,076
-709,904	-67,084	-0,037	0,011
-708,889	-158,779	-0,124	0,005
-707,875	341,485	0,006	0,008
-706,860	-154,122	-0,087	-0,004
-705,845	267,483	-0,032	-0,042
-704,831	398,933	-0,063	0,098
-703,816	-200,000	-0,006	-0,157
-702,802	-59,187	-0,090	0,029
-701,787	-42,792	-0,209	-0,079
-700,772	800,000	-0,044	-0,135
-699,758	-200,000	0,012	-0,060
-698,743	-11,332	0,035	0,017
-697,729	28,755	-0,102	0,064
-696,714	-200,000	-0,028	-0,092
-695,699	800,000	-0,040	-0,092
-694,685	-140,158	-0,059	-0,005
-693,670	629,760	-0,083	0,157
-692,656	-99,608	-0,158	-0,029
-691,641	-131,619	0,115	0,011
-690,627	-98,333	0,125	-0,024
-689,612	7,983	0,082	0,045
-688,597	42,380	0,042	0,028
-687,583	-200,000	-0,011	-0,248
-686,568	-200,000	0,022	-0,076
-685,554	-200,000	0,026	-0,115
-684,539	800,000	0,044	0,126
-683,524	-157,305	-0,044	-0,002
-682,510	-164,070	-0,054	0,002
-681,495	-200,000	-0,007	-0,040
-680,481	-200,000	-0,027	-0,189
-679,466	195,533	-0,031	-0,035
-678,451	355,907	-0,015	0,022
-677,437	23,095	-0,029	-0,018
-676,422	113,291	0,033	-0,029
-675,408	263,098	-0,038	-0,049
-674,393	-200,000	0,009	0,086
-673,378	-200,000	0,001	0,067
-672,364	128,005	-0,086	-0,082
-671,349	98,791	-0,038	-0,032
-670,335	97,485	0,067	0,057
-669,320	77,272	0,067	0,053
-668,305	-200,000	-0,037	-0,121
-667,291	3,474	-0,090	-0,049
-666,276	-200,000	0,000	-0,067
-665,262	-32,154	-0,099	-0,041
-664,247	-113,376	-0,094	-0,013
-663,232	377,329	0,026	-0,040
-662,218	797,567	-0,054	0,111
-661,203	-200,000	-0,005	0,055
-660,189	800,000	0,095	0,212
-659,174	-44,373	-0,059	0,022
-658,159	-200,000	-0,036	-0,166
-657,145	-200,000	0,010	-0,106
-656,130	78,573	0,015	-0,012
-655,116	-22,373	-0,074	0,033
-654,101	388,577	-0,067	0,103
-653,086	46,811	0,105	-0,072
-652,072	-170,464	0,034	0,001
-651,057	-200,000	0,029	0,116
-650,043	-20,957	0,100	0,045
-649,028	474,792	0,038	-0,064
-648,014	-100,356	0,172	0,031
-646,999	-121,544	0,201	-0,024
-645,984	-84,828	-0,057	0,013
-644,970	209,284	0,078	-0,090
-643,955	-48,428	-0,101	-0,036
-642,941	800,000	-0,038	-0,119
-641,926	-123,086	-0,142	0,017
-640,911	165,413	-0,019	-0,020
-639,897	-74,399	0,132	-0,035
-638,882	-200,000	-0,005	-0,062
-637,868	-200,000	-0,000	0,178
-636,853	179,284	-0,072	-0,078
-635,838	-25,100	0,169	0,074
-634,824	628,565	-0,030	0,057
-633,809	-160,052	0,087	0,003
-632,795	448,158	0,020	0,033
-631,780	-27,087	-0,103	0,044
-630,765	-69,896	-0,099	-0,028
-629,751	-200,000	0,034	-0,114
-628,736	-146,791	-0,123	-0,008
-627,722	-12,294	-0,066	0,032
-626,707	246,820	-0,044	-0,055
-625,692	48,239	-0,101	-0,070
-624,678	72,285	-0,113	0,087
-623,663	-72,467	0,112	0,030
-622,649	732,381	0,027	-0,054
-621,634	-200,000	0,018	-0,085
-620,619	93,786	-0,105	-0,088
-619,605	-171,505	0,040	0,001
-618,590	800,000	-0,039	0,119
-617,576	-76,967	0,009	-0,002
-616,561	-16,370	0,092	-0,043
-615,546	-200,000	-0,024	-0,120
-614,532	-200,000	-0,006	-0,039
-613,517	-200,000	-0,014	-0,058
-612,503	182,983	0,040	-0,044
-611,488	355,983	-0,077	0,114
-610,474	-79,349	-0,043	0,011
-609,459	176,369	-0,050	0,054
-608,444	-200,000	0,001	0,031
-607,430	-107,371	0,124	-0,020
-606,415	-200,000	0,028	-0,128
-605,401	800,000	-0,001	-0,004
-604,386	-69,708	0,181	-0,051
-603,371	156,112	-0,124	0,127
-602,357	-200,000	0,008	-0,123
-601,342	-200,000	-0,005	-0,080
-600,328	-200,000	0,017	0,060
-599,313	800,000	-0,016	0,053
-598,298	-61,341	-0,047	-0,014
-597,284	-1,430	0,103	-0,053
-596,269	27,933	0,089	0,056
-595,255	800,000	0,002	0,006
-594,240	-77,739	0,182	-0,046
-593,225	6,808	-0,071	-0,039
-592,211	-40,070	-0,125	0,048
-591,196	-102,590	0,080	-0,014
-590,182	-200,000	0,016	0,054
-589,167	99,296	-0,069	0,059
-588,152	-3,818	-0,104	0,053
-587,138	-200,000	0,008	0,084
-586,123	51,080	0,065	-0,046
-585,109	9,539	-0,161	-0,090
-584,094	-200,000	-0,002	-0,023
-583,079	31,816	-0,038	0,024
-582,065	-173,805	-0,065	-0,001
-581,050	800,000	0,022	0,058
-580,036	107,784	-0,117	0,103
-579,021	-200,000	-0,018	-0,086
-578,006	412,744	-0,077	-0,122
-576,992	-200,000	0,002	-0,071
-575,977	249,720	-0,026	0,033
-574,963	59,882	0,144	-0,105
-573,948	295,169	-0,074	-0,100
-572,934	-46,763	-0,039	-0,014
-571,919	54,525	-0,077	0,055
-570,904	800,000	-0,033	-0,079
-569,890	-200,000	-0,033	-0,112
-568,875	224,233	0,135	-0,161
-567,861	110,468	0,020	-0,018
-566,846	7,109	-0,032	-0,017
-565,831	147,739	0,069	0,069
-564,817	-109,541	0,028	-0,004
-563,802	-8,739	0,036	-0,018
-562,788	-24,128	0,074	-0,032
-561,773	-200,000	0,002	0,033
-560,758	800,000	0,036	0,109
-559,744	230,631	-0,042	-0,050
-558,729	774,663	0,040	-0,080
-557,715	329,386	-0,064	0,091
-556,700	-158,372	-0,174	0,007
-555,685	-200,000	0,009	-0,033
-554,671	33,070	0,125	0,080
-553,656	712,924	-0,037	0,073
-552,642	72,675	-0,044	0,034
-551,627	440,400	0,042	0,067
-550,612	800,000	-0,063	0,161
-549,598	313,045	-0,011	0,016
-548,583	50,363	-0,052	-0,036
-547,569	-0,483	0,048	0,025
-546,554	69,942	0,055	-0,042
-545,539	27,170	0,113	0,070
-544,525	2,171	-0,013	0,007
-543,510	96,082	-0,074	0,062
-542,496	-32,496	-0,065	-0,027
-541,481	378,228	-0,078	-0,118
-540,466	-200,000	-0,018	-0,073
-539,452	-10,832	0,082	0,040
-538,437	4,431	0,115	0,062
-537,423	-200,000	0,012	0,144
-536,408	-116,963	0,104	0,014
-535,393	-106,332	0,143	-0,023
-534,379	16,153	-0,067	0,039
-533,364	164,165	-0,081	-0,085
-532,350	-34,681	0,068	-0,028
-531,335	800,000	-0,041	0,112
-530,321	122,678	-0,031	0,028
-529,306	-26,487	-0,140	0,061
-528,291	-159,247	-0,074	-0,003
-527,277	262,954	0,043	-0,055
-526,262	-18,658	0,019	-0,009
-525,248	305,862	0,111	-0,153
-524,233	-200,000	0,004	0,084
-523,218	800,000	0,038	0,096
-522,204	800,000	0,033	0,106
-521,189	800,000	0,029	0,062
-520,175	800,000	-0,027	-0,062
-519,160	589,159	0,090	-0,166
-518,145	-147,165	0,082	0,005
-517,131	203,972	0,082	0,094
-516,116	-200,000	-0,009	-0,115
-515,102	-200,000	0,001	0,052
-514,087	138,121	0,103	0,100
-513,072	271,620	-0,026	0,034
-512,058	-112,106	-0,021	0,003
-511,043	213,998	-0,009	0,011
-510,029	-200,000	-0,015	-0,156
-509,014	-132,574	0,053	-0,005
-507,999	345,004	0,045	0,065
-506,985	-200,000	0,007	0,129
-505,970	217,062	-0,058	-0,068
-504,956	-124,248	-0,072	-0,008
-503,941	-200,000	0,012	-0,081
-502,926	-89,741	-0,073	0,016
-501,912	800,000	-0,028	0,065
-500,897	409,540	-0,038	0,060
-499,883	-200,000	-0,007	0,055
-498,868	800,000	0,022	-0,048
-497,853	-13,185	0,089	-0,043
-496,839	-200,000	0,008	-0,065
-495,824	153,053	0,035	0,035
-494,810	800,000	0,023	-0,070
-493,795	-200,000	0,011	0,050
-492,781	78,771	-0,102	-0,081
-491,766	-54,278	-0,071	-0,024
-490,751	-87,572	-0,120	-0,027
-489,737	-15,800	0,112	0,053
-488,722	585,916	0,077	-0,140
-487,708	72,515	-0,114	0,088
-486,693	232,603	0,095	0,116
-485,678	33,614	0,071	-0,045
-484,664	52,404	0,059	-0,042
-483,649	800,000	-0,063	-0,132
-482,635	800,000	0,003	-0,006
-481,620	-200,000	-0,005	-0,101
-480,605	118,071	-0,066	-0,060
-479,591	-200,000	-0,010	0,102
-478,576	-35,804	-0,046	0,018
-477,562	-152,848	0,065	0,003
-476,547	-9,245	-0,022	0,011
-475,532	800,000	0,015	0,044
-474,518	23,859	0,094	-0,057
-473,503	800,000	0,031	0,064
-472,489	-118,721	0,011	-0,001
-471,474	-41,369	-0,073	0,028
-470,459	-200,000	-0,006	0,046
-469,445	628,851	-0,076	-0,142
-468,430	-200,000	0,013	0,053
-467,416	-200,000	0,018	-0,082
-466,401	-56,236	0,117	0,038
-465,386	800,000	0,021	0,062
-464,372	25,496	0,027	-0,016
-463,357	-44,050	0,129	0,047
-462,343	156,517	-0,029	-0,030
-461,328	46,682	-0,069	-0,047
-460,313	271,705	0,085	-0,110
-459,299	800,000	0,085	-0,198
-458,284	16,695	-0,157	-0,091
-457,270	800,000	-0,016	-0,045
-456,255	-200,000	0,010	-0,078
-455,241	800,000	0,028	-0,091
-454,226	800,000	-0,016	0,035
-453,211	188,382	-0,047	-0,051
-452,197	105,081	-0,034	0,029
-451,182	33,110	0,036	-0,023
-450,168	-200,000	-0,002	-0,215
-449,153	-200,000	0,003	0,023
-448,138	231,856	0,063	0,076
-447,124	800,000	-0,023	0,071
-446,109	114,140	0,043	-0,039
-445,095	-135,761	0,093	-0,008
-444,080	12,247	0,131	-0,074
-443,065	23,322	0,017	0,010
-442,051	150,079	-0,073	-0,073
-441,036	130,097	-0,067	0,063
-440,022	495,586	0,003	-0,005
-439,007	800,000	0,031	0,066
-437,992	15,889	-0,065	-0,037
-436,978	7,530	0,168	0,092
-435,963	-112,654	0,093	-0,013
-434,949	-65,126	-0,082	-0,024
-433,934	-200,000	-0,005	0,041
-432,919	-63,938	-0,091	-0,027
-431,905	-200,000	0,010	-0,111
-430,890	64,997	0,095	-0,071
-429,876	51,139	0,024	-0,017
-428,861	136,940	0,146	-0,140
-427,846	-69,133	-0,078	-0,022
-426,832	126,884	-0,080	0,075
-425,817	-46,070	0,060	-0,021
-424,803	117,184	-0,104	-0,094
-423,788	366,516	0,058	0,086
-422,773	189,749	0,046	-0,051
-421,759	-156,964	-0,056	-0,002
-420,744	-200,000	0,001	-0,059
-419,730	-200,000	-0,049	0,168
-418,715	136,369	-0,078	-0,074
-417,701	-66,816	0,026	-0,007
-416,686	-76,898	0,153	-0,039
-415,671	78,242	-0,046	0,036
-414,657	636,540	-0,039	-0,074
-413,642	-100,879	-0,027	0,005
-412,628	-60,330	-0,059	-0,018
-411,613	64,197	-0,092	0,068
-410,598	800,000	-0,037	-0,094
-409,584	377,206	0,029	-0,043
-408,569	-168,072	0,058	-0,002
-407,555	-16,239	0,104	0,049
-406,540	-200,000	0,013	-0,201
-405,525	-145,006	0,059	-0,004
-404,511	-200,000	0,032	-0,199
-403,496	-4,998	-0,089	-0,045
-402,482	-68,588	-0,015	0,004
-401,467	-143,475	-0,184	-0,013
-400,452	-129,085	-0,088	0,009
-399,438	191,603	0,052	0,058
-398,423	-106,200	-0,135	0,022
-397,409	-62,175	-0,064	-0,020
-396,394	-159,778	-0,095	-0,004
-395,379	-137,711	0,126	0,010
-394,365	690,397	-0,062	0,120
-393,350	800,000	-0,028	0,077
-392,336	9,443	-0,097	0,054
-391,321	557,771	-0,074	-0,131
-390,306	-200,000	0,010	-0,172
-389,292	354,822	-0,094	0,138
-388,277	22,442	-0,006	0,004
-387,263	560,643	0,016	-0,029
-386,248	36,700	0,055	-0,036
-385,233	800,000	0,032	0,086
-384,219	-200,000	0,014	0,068
-383,204	-28,100	-0,073	-0,031
-382,190	38,908	-0,092	-0,060
-381,175	-80,238	0,075	0,018
-380,160	800,000	0,009	-0,021
-379,146	800,000	-0,032	-0,088
-378,131	35,458	0,060	0,039
-377,117	-122,103	0,083	0,010
-376,102	800,000	-0,019	-0,043
-375,088	-200,000	-0,001	-0,102
-374,073	-10,081	0,070	-0,034
-373,058	800,000	0,058	0,123
-372,044	-200,000	0,004	-0,033
-371,029	-200,000	0,019	0,125
-370,015	-200,000	-0,001	-0,019
-369,000	-200,000	0,030	-0,112
-367,985	-131,583	0,044	-0,004
-366,971	-200,000	0,000	-0,150
-365,956	-44,886	0,057	0,021
-364,942	669,140	-0,010	-0,020
-363,927	26,775	0,112	0,069
-362,912	-26,376	-0,147	-0,063
-361,898	132,500	0,100	0,094
-360,883	-200,000	-0,013	-0,048
-359,869	-200,000	-0,014	0,106
-358,854	128,581	0,019	-0,018
-357,839	-48,909	-0,114	0,040
-356,825	111,967	0,051	0,045
-355,810	333,999	0,069	0,098
-354,796	-200,000	0,007	0,123
-353,781	800,000	-0,066	0,161
-352,766	-200,000	-0,003	0,119
-351,752	-118,116	0,091	0,012
-350,737	70,366	0,075	-0,057
-349,723	370,680	0,095	0,142
-348,708	-5,511	0,085	0,043
-347,693	6,473	0,055	-0,030
-346,679	-45,647	-0,087	0,032
-345,664	-200,000	0,002	-0,032
-344,650	-200,000	-0,024	-0,082
-343,635	789,963	0,057	0,115
-342,620	-77,455	0,158	0,040
-341,606	11,723	-0,136	0,076
-340,591	800,000	0,035	0,077
-339,577	-36,408	-0,058	-0,023
-338,562	800,000	-0,026	-0,077
-337,548	51,668	-0,058	0,040
-336,533	-152,211	0,064	-0,003
-335,518	-200,000	0,019	0,091
-334,504	450,098	-0,105	0,171
-333,489	271,513	0,095	0,123
-332,475	563,928	0,034	-0,061
-331,460	37,808	0,058	-0,038
-330,445	28,979	-0,096	0,059
-329,431	31,519	-0,126	-0,079
-328,416	146,038	0,125	0,123
-327,402	800,000	0,078	-0,172
-326,387	103,023	-0,058	0,050
-325,372	714,503	-0,037	-0,071
-324,358	-200,000	-0,015	-0,079
-323,343	45,410	0,055	0,037
-322,329	-141,473	0,161	0,012
-321,314	-100,780	0,004	0,001
-320,299	0,144	-0,059	-0,031
-319,285	-170,437	-0,065	-0,002
-318,270	201,375	-0,081	0,092
-317,256	284,556	0,062	0,082
-316,241	-116,200	-0,111	-0,015
-315,226	-200,000	-0,029	-0,110
-314,212	181,959	-0,086	-0,093
-313,197	14,542	-0,042	-0,024
-312,183	-200,000	0,003	0,114
-311,168	304,835	0,023	0,031
-310,153	800,000	0,030	0,064
-309,139	800,000	-0,052	-0,135
-308,124	194,430	0,019	0,021
-307,110	74,161	0,199	-0,153
-306,095	168,047	0,074	0,077
-305,080	206,726	-0,061	-0,069
-304,066	1,263	-0,120	-0,063
-303,051	-16,578	-0,155	-0,072
-302,037	-108,455	-0,104	0,016
-301,022	-74,326	0,152	0,040
-300,008	631,060	0,071	0,132
-298,993	800,000	0,058	0,175
-297,978	800,000	0,017	0,051
-296,964	-200,000	-0,013	0,106
-295,949	-200,000	0,031	-0,133
-294,935	184,156	-0,084	-0,091
-293,920	-58,767	0,144	-0,045
-292,905	615,228	0,037	0,068
-291,891	130,467	0,083	0,078
-290,876	-39,273	-0,139	0,053
-289,862	598,253	0,028	0,050
-288,847	-90,963	-0,043	0,009
-287,832	800,000	-0,025	-0,077
-286,818	175,559	0,123	0,130
-285,803	147,971	0,039	-0,039
-284,789	32,494	-0,110	-0,069
-283,774	246,201	0,068	0,084
-282,759	-200,000	0,007	0,081
-281,745	-130,467	-0,145	-0,014
-280,730	-200,000	-0,008	-0,093
-279,716	70,836	0,018	-0,014
-278,701	-200,000	0,010	0,070
-277,686	-200,000	0,004	-0,043
-276,672	-2,000	0,141	0,072
-275,657	463,905	0,068	-0,112
-274,643	270,415	-0,081	-0,105
-273,628	-77,880	-0,101	-0,025
-272,613	151,969	-0,030	0,030
-271,599	-200,000	-0,006	0,117
-270,584	-29,269	-0,014	-0,006
-269,570	-200,000	-0,021	0,118
-268,555	800,000	0,021	-0,047
-267,540	-115,275	0,120	-0,016
-266,526	-71,844	-0,066	-0,018
-265,511	-109,694	-0,115	-0,018
-264,497	800,000	0,024	-0,065
-263,482	-24,785	-0,042	-0,018
-262,467	-99,605	0,058	0,011
-261,453	106,244	0,209	0,181
-260,438	-50,460	0,095	-0,033
-259,424	800,000	-0,018	0,037
-258,409	25,350	0,014	0,008
-257,395	-200,000	0,002	-0,055
-256,380	-127,670	0,066	-0,007
-255,365	384,014	0,069	0,104
-254,351	36,004	-0,102	-0,066
-253,336	155,547	-0,018	0,018
-252,322	215,725	-0,078	-0,091
-251,307	605,185	-0,069	-0,127
-250,292	113,867	-0,212	-0,189
-249,278	-35,047	-0,120	-0,048
-248,263	-200,000	-0,014	0,106
-247,249	-61,416	0,046	0,014
-246,234	-118,990	0,067	-0,009
-245,219	207,305	-0,089	-0,102
-244,205	30,984	0,039	-0,024
-243,190	179,710	-0,029	-0,031
-242,176	162,145	0,108	-0,111
-241,161	-200,000	-0,000	0,117
-240,146	-34,929	-0,012	0,005
-239,132	-200,000	-0,050	0,190
-238,117	136,279	-0,080	0,076
-237,103	-200,000	-0,006	-0,067
-236,088	54,694	-0,096	0,068
-235,073	800,000	0,029	0,073
-234,059	-37,972	0,255	0,099
-233,044	-200,000	0,014	0,072
-232,030	-73,125	-0,050	-0,013
-231,015	-85,857	-0,109	0,025
-230,000	-83,120	-0,126	-0,029
-228,986	-200,000	-0,006	-0,028
-227,971	546,987	-0,023	0,041
-226,957	800,000	-0,022	0,069
-225,942	34,975	0,143	0,092
-224,927	-200,000	0,018	0,074
-223,913	695,866	0,020	0,038
-222,898	275,206	0,031	-0,041
-221,884	-200,000	0,000	-0,059
-220,869	-200,000	0,008	0,036
-219,855	532,894	0,070	0,121
-218,840	201,039	-0,101	0,114
-217,825	-11,196	-0,099	-0,047
-216,811	131,805	-0,010	0,010
-215,796	-25,579	-0,083	-0,036
-214,782	-80,846	-0,055	-0,013
-213,767	800,000	0,046	0,148
-212,752	-145,059	0,107	0,007
-211,738	-13,708	-0,045	-0,021
-210,723	-16,930	-0,025	0,011
-209,709	37,360	-0,100	0,064
-208,694	280,679	-0,065	-0,086
-207,679	-35,528	-0,061	0,024
-206,665	30,177	0,068	0,042
-205,650	50,724	-0,010	-0,007
-204,636	632,396	0,036	-0,067
-203,621	-64,568	-0,038	0,011
-202,606	-177,130	0,042	-0,001
-201,592	-76,723	-0,054	0,014
-200,577	-127,006	-0,093	0,010
-199,563	86,578	-0,042	0,033
-198,548	-87,247	0,149	-0,033
-197,533	800,000	-0,015	-0,049
-196,519	-200,000	-0,030	-0,154
-195,504	-86,947	0,024	0,005
-194,490	643,262	-0,055	-0,102
-193,475	-156,273	-0,060	-0,003
-192,460	-58,755	-0,075	0,024
-191,446	-200,000	0,003	0,045
-190,431	-79,998	0,060	-0,015
-189,417	800,000	0,006	0,013
-188,402	-96,685	0,120	-0,023
-187,387	27,616	-0,082	-0,050
-186,373	-84,880	-0,090	0,021
-185,358	-200,000	0,002	0,039
-184,344	-200,000	0,009	0,099
-183,329	94,581	0,147	0,122
-182,315	-200,000	0,014	0,189
-181,300	-200,000	0,001	0,089
-180,285	-131,124	-0,091	0,009
-179,271	196,051	0,051	0,057
-178,256	-64,714	-0,103	-0,030
-177,242	-200,000	0,019	0,066
-176,227	-114,023	0,016	0,002
-175,212	309,008	-0,049	-0,068
-174,198	117,298	-0,105	-0,094
-173,183	-200,000	-0,005	-0,103
-172,169	-200,000	0,029	-0,131
-171,154	-200,000	0,024	0,113
-170,139	-102,620	-0,116	-0,020
-169,125	236,075	0,081	0,098
-168,110	282,903	0,017	-0,022
-167,096	86,310	-0,105	0,084
-166,081	302,403	-0,061	-0,083
-165,066	214,181	-0,085	-0,098
-164,052	219,132	0,032	-0,037
-163,037	800,000	-0,020	0,042
-162,023	-200,000	0,040	0,130
-161,008	-200,000	-0,017	0,105
-159,993	-3,563	0,033	0,017
-158,979	-173,397	-0,120	-0,003
-157,964	153,957	0,096	-0,096
-156,950	-13,025	-0,057	0,027
-155,935	-142,094	0,165	0,012
-154,920	28,549	0,013	0,008
-153,906	-43,806	0,171	0,062
-152,891	-10,592	0,104	0,050
-151,877	-120,735	0,068	-0,008
-150,862	-200,000	-0,017	-0,104
-149,847	154,023	0,068	-0,068
-148,833	70,160	0,110	0,082
-147,818	-64,218	-0,076	0,022
-146,804	28,211	-0,068	0,042
-145,789	800,000	0,036	0,073
-144,775	91,582	-0,058	0,047
-143,760	69,625	-0,093	-0,070
-142,745	79,339	0,060	-0,047
-141,731	741,189	0,014	-0,027
-140,716	-8,525	0,165	0,081
-139,702	-151,768	-0,109	0,006
-138,687	800,000	0,061	0,160
-137,672	-200,000	-0,012	0,046
-136,658	-200,000	-0,015	0,052
-135,643	-200,000	-0,023	-0,122
-134,629	-40,466	0,025	-0,009
-133,614	173,141	0,060	0,063
-132,599	313,934	-0,040	-0,055
-131,585	265,381	0,044	0,056
-130,570	-142,379	0,044	0,003
-129,556	-100,133	-0,046	-0,008
-128,541	113,606	0,048	-0,042
-127,526	800,000	0,035	0,076
-126,512	-200,000	0,002	0,098
-125,497	116,383	-0,026	0,023
-124,483	-200,000	-0,016	-0,081
-123,468	-77,407	0,080	0,020
-122,453	74,968	0,026	0,020
-121,439	-200,000	0,007	-0,162
-120,424	-32,600	0,119	0,048
-119,410	-200,000	-0,003	-0,053
