DTS Sentinel unit serial number:	SN410029Multiplexer serial number:	ORYXHardware model number:	OX2-SRSoftware version number:	ORYX F/W v4,00 Oryx Data Collector v3.7.2.0data status	okinstallation	B6 Nyhavnadifferential loss correction	single-endedforward channel	channel 2reverse channel	N/Adate	2023/12/08time	22:10:08forward acquisition time	300,00reverse acquisition time	0,00gamma	499,1914k internal	0,3158k external	0,3158temperature offset calibration	1,0000default loss term (dB/km)	0,3820temperature slope calibration	1,0000multiplexer offset coefficient	1,0000multiplexer slope coefficient	1,0000fibre end	0,00T internal ref (°C)	15,28T ext. ref 1 (°C)	-1,17T ext. ref 2 (°C)	-1,19length (m)	temperature (°C)	Stokes	anti-Stokes-744,400	-200,000	0,012	0,093
-743,385	-127,988	-0,314	0,033
-742,371	-147,916	0,206	-0,012
-741,356	30,080	-0,228	0,143
-740,342	281,983	0,072	0,096
-739,327	-96,868	-0,462	-0,089
-738,312	99,655	0,128	-0,109
-737,298	-155,066	-0,346	-0,016
-736,283	42,553	0,100	0,067
-735,269	-125,851	-0,396	0,043
-734,254	-157,892	-0,052	0,002
-733,239	13,396	-0,460	-0,262
-732,225	-140,331	0,188	-0,014
-731,210	800,000	-0,038	-0,112
-730,196	63,827	-0,059	0,044
-729,181	87,549	-0,019	-0,015
-728,167	-200,000	0,011	0,143
-727,152	41,639	0,056	-0,037
-726,137	-61,650	-0,096	-0,029
-725,123	267,283	-0,120	-0,155
-724,108	43,843	-0,100	-0,067
-723,094	-119,263	-0,146	0,019
-722,079	-200,000	-0,004	-0,051
-721,064	-200,000	0,001	-0,026
-720,050	64,390	0,089	-0,066
-719,035	20,310	0,094	-0,056
-718,021	295,068	0,070	0,094
-717,006	-200,000	0,030	-0,137
-715,991	800,000	-0,056	-0,144
-714,977	-108,236	-0,122	0,019
-713,962	-200,000	0,021	-0,117
-712,948	-63,533	-0,083	-0,025
-711,933	-94,957	0,109	0,022
-710,918	-43,376	-0,076	0,028
-709,904	-0,312	-0,081	-0,042
-708,889	325,274	0,076	-0,107
-707,875	-200,000	0,010	-0,082
-706,860	234,383	0,102	0,124
-705,845	-200,000	0,026	0,105
-704,831	414,911	-0,051	0,080
-703,816	-118,316	-0,038	-0,005
-702,802	203,327	-0,040	0,046
-701,787	307,946	-0,021	-0,029
-700,772	607,634	-0,037	-0,067
-699,758	800,000	-0,030	0,096
-698,743	595,007	0,081	0,149
-697,729	-200,000	-0,003	-0,041
-696,714	800,000	-0,062	-0,135
-695,699	21,557	0,037	-0,022
-694,685	-200,000	-0,064	-0,228
-693,670	121,787	0,055	-0,050
-692,656	246,564	0,014	-0,018
-691,641	-200,000	-0,000	-0,081
-690,627	21,263	0,094	0,056
-689,612	189,086	0,043	0,047
-688,597	7,042	-0,136	-0,074
-687,583	75,104	-0,127	-0,099
-686,568	3,679	-0,093	0,050
-685,554	175,540	-0,084	0,089
-684,539	290,050	-0,044	0,059
-683,524	60,338	-0,117	-0,085
-682,510	496,850	0,026	0,044
-681,495	480,233	-0,046	0,076
-680,481	800,000	0,049	-0,130
-679,466	800,000	-0,055	-0,141
-678,451	102,231	0,088	-0,076
-677,437	800,000	0,042	-0,097
-676,422	308,009	0,023	-0,031
-675,408	-18,164	0,082	-0,038
-674,393	332,706	0,119	-0,170
-673,378	-200,000	-0,009	-0,091
-672,364	735,064	-0,040	-0,079
-671,349	-200,000	-0,023	-0,175
-670,335	243,818	-0,063	-0,077
-669,320	-200,000	-0,023	0,111
-668,305	-49,805	0,076	0,027
-667,291	800,000	0,012	0,027
-666,276	800,000	-0,029	-0,070
-665,262	69,801	-0,186	-0,141
-664,247	-200,000	0,004	-0,068
-663,232	-200,000	-0,007	-0,118
-662,218	-159,065	-0,049	0,002
-661,203	265,371	-0,075	0,096
-660,189	-200,000	0,029	-0,179
-659,174	-145,517	0,079	-0,005
-658,159	-200,000	-0,037	-0,160
-657,145	-37,283	0,058	-0,023
-656,130	-144,604	0,016	0,001
-655,116	800,000	0,018	0,055
-654,101	-11,056	0,114	0,055
-653,086	-43,986	-0,078	0,029
-652,072	-63,182	-0,140	0,042
-651,057	331,565	0,042	-0,060
-650,043	391,163	0,091	-0,140
-649,028	199,208	-0,027	-0,031
-648,014	-200,000	0,010	0,058
-646,999	-200,000	-0,013	0,069
-645,984	102,876	0,123	0,106
-644,970	-95,468	-0,014	-0,003
-643,955	800,000	0,012	0,035
-642,941	216,925	0,038	-0,045
-641,926	-192,473	-0,091	0,001
-640,911	800,000	0,039	-0,106
-639,897	800,000	-0,058	0,122
-638,882	113,128	-0,078	0,070
-637,868	172,388	0,072	-0,076
-636,853	-200,000	-0,065	-0,000
-635,838	99,610	-0,091	-0,078
-634,824	199,254	0,046	-0,051
-633,809	-200,000	-0,002	-0,050
-632,795	428,490	-0,053	-0,084
-631,780	-200,000	-0,012	0,191
-630,765	-146,142	-0,097	-0,006
-629,751	240,460	0,030	-0,037
-628,736	301,355	0,047	0,064
-627,722	-13,664	-0,087	-0,041
-626,707	800,000	-0,046	0,101
-625,692	602,453	0,043	0,078
-624,678	-200,000	0,002	0,026
-623,663	28,227	-0,081	0,050
-622,649	559,468	-0,056	-0,100
-621,634	61,647	0,040	-0,029
-620,619	271,737	0,028	-0,036
-619,605	-200,000	0,005	0,036
-618,590	-62,734	-0,117	-0,035
-617,576	20,384	-0,120	0,071
-616,561	236,491	-0,068	0,083
-615,546	-68,726	-0,148	-0,042
-614,532	-200,000	-0,027	0,094
-613,517	-200,000	-0,011	-0,066
-612,503	546,520	0,033	-0,059
-611,488	800,000	-0,045	0,095
-610,474	-200,000	-0,028	-0,161
-609,459	-200,000	0,004	0,079
-608,444	-86,570	-0,182	0,041
-607,430	708,022	0,037	-0,073
-606,415	-15,081	0,105	-0,049
-605,401	141,134	-0,081	-0,079
-604,386	139,900	-0,083	0,080
-603,371	-200,000	0,010	-0,069
-602,357	15,229	-0,101	-0,058
-601,342	-200,000	0,004	-0,016
-600,328	-200,000	-0,006	-0,055
-599,313	-200,000	0,028	0,106
-598,298	-118,546	-0,090	-0,011
-597,284	-101,797	0,099	-0,017
-596,269	-200,000	-0,024	-0,103
-595,255	800,000	0,015	-0,032
-594,240	800,000	-0,032	-0,084
-593,225	800,000	-0,019	-0,043
-592,211	216,719	0,102	-0,120
-591,196	34,859	-0,065	0,042
-590,182	273,520	0,061	-0,080
-589,167	129,748	-0,033	0,031
-588,152	800,000	-0,016	-0,049
-587,138	-134,136	-0,055	0,005
-586,123	82,531	-0,084	-0,067
-585,109	-98,067	-0,036	-0,007
-584,094	-21,419	-0,047	-0,021
-583,079	87,441	-0,041	-0,033
-582,065	-55,962	0,022	0,007
-581,050	800,000	-0,034	-0,078
-580,036	-166,803	0,141	0,004
-579,021	-44,241	-0,140	-0,051
-578,006	185,136	-0,060	-0,066
-576,992	-200,000	-0,016	0,059
-575,977	-72,592	-0,095	-0,025
-574,963	-14,894	0,058	0,027
-573,948	283,308	0,071	0,093
-572,934	111,787	-0,035	0,031
-571,919	-47,896	-0,172	0,061
-570,904	99,144	-0,054	0,046
-569,890	166,602	0,084	-0,087
-568,875	409,313	-0,072	-0,113
-567,861	-157,716	0,072	0,003
-566,846	240,462	-0,068	-0,083
-565,831	800,000	-0,036	0,102
-564,817	76,197	-0,122	-0,095
-563,802	-200,000	-0,019	-0,065
-562,788	800,000	0,016	-0,040
-561,773	575,481	-0,054	-0,096
-560,758	800,000	0,023	-0,050
-559,744	537,558	0,090	0,157
-558,729	-114,956	-0,108	-0,015
-557,715	-39,149	0,073	0,028
-556,700	-126,469	0,107	-0,011
-555,685	-200,000	-0,023	-0,126
-554,671	293,983	0,045	0,060
-553,656	94,413	0,067	0,056
-552,642	482,975	-0,058	0,097
-551,627	-102,465	0,052	0,009
-550,612	-200,000	-0,006	-0,074
-549,598	-200,000	-0,001	-0,045
-548,583	277,015	0,088	-0,115
-547,569	-94,943	0,125	0,025
-546,554	800,000	-0,038	-0,095
-545,539	-200,000	0,021	-0,084
-544,525	57,871	-0,056	-0,040
-543,510	345,068	-0,071	-0,103
-542,496	424,256	-0,039	0,062
-541,481	136,489	-0,059	-0,056
-540,466	91,827	-0,028	-0,023
-539,452	338,553	-0,022	-0,031
-538,437	645,763	0,039	0,074
-537,423	800,000	-0,046	-0,100
-536,408	316,075	0,032	-0,045
-535,393	-200,000	0,008	-0,061
-534,379	98,937	0,048	0,041
-533,364	339,562	-0,054	0,078
-532,350	-128,552	-0,086	-0,009
-531,335	166,799	0,044	-0,046
-530,321	138,365	0,069	0,066
-529,306	-96,098	-0,121	-0,023
-528,291	145,842	0,112	-0,110
-527,277	160,507	-0,022	-0,023
-526,262	-89,483	0,039	0,008
-525,248	53,865	0,044	0,031
-524,233	29,846	0,120	-0,074
-523,218	647,169	-0,056	-0,106
-522,204	204,365	0,129	0,147
-521,189	-181,940	0,051	-0,001
-520,175	-136,254	-0,055	0,005
-519,160	206,723	-0,068	0,078
-518,145	-76,259	0,081	-0,021
-517,131	-100,255	0,080	0,014
-516,116	31,910	0,052	0,033
-515,102	-168,530	0,089	0,002
-514,087	384,922	-0,066	0,100
-513,072	-149,686	-0,089	-0,005
-512,058	278,773	0,085	-0,112
-511,043	263,071	-0,124	0,157
-510,029	125,277	-0,074	0,068
-509,014	-24,898	-0,069	-0,030
-507,999	-49,614	0,121	-0,042
-506,985	313,060	0,067	-0,093
-505,970	127,922	-0,090	-0,084
-504,956	-200,000	-0,035	0,155
-503,941	-200,000	0,001	0,091
-502,926	800,000	0,037	0,087
-501,912	-118,291	0,046	-0,006
-500,897	-200,000	0,006	-0,068
-499,883	758,823	0,028	0,055
-498,868	-200,000	-0,012	0,108
-497,853	-200,000	0,030	-0,148
-496,839	209,579	-0,050	-0,058
-495,824	-77,671	-0,065	0,016
-494,810	779,922	0,012	0,024
-493,795	168,738	-0,054	-0,056
-492,781	-64,564	-0,157	-0,046
-491,766	158,002	-0,032	-0,032
-490,751	359,534	0,035	-0,051
-489,737	488,934	0,072	0,120
-488,722	233,710	-0,158	0,190
-487,708	-17,022	0,097	-0,045
-486,693	-22,828	-0,181	-0,079
-485,678	-200,000	-0,026	-0,099
-484,664	214,197	0,054	0,063
-483,649	-200,000	0,018	-0,086
-482,635	-200,000	0,005	0,182
-481,620	800,000	0,067	0,191
-480,605	-159,540	0,101	-0,004
-479,591	-11,496	-0,038	0,018
-478,576	-200,000	-0,007	-0,069
-477,562	-125,441	-0,069	0,008
-476,547	-7,866	0,059	-0,029
-475,532	-200,000	0,020	-0,084
-474,518	37,228	-0,084	-0,054
-473,503	30,129	0,084	-0,052
-472,489	93,395	-0,059	0,049
-471,474	224,545	-0,102	-0,120
-470,459	242,945	0,018	0,022
-469,445	312,445	0,018	-0,024
-468,430	-0,588	0,088	-0,045
-467,416	46,902	0,061	-0,041
-466,401	165,609	0,036	0,037
-465,386	-28,184	-0,063	0,026
-464,372	800,000	0,009	0,023
-463,357	-9,365	0,094	-0,046
-462,343	148,142	0,059	-0,058
-461,328	-200,000	0,011	0,042
-460,313	-200,000	-0,001	-0,081
-459,299	326,610	-0,077	0,108
-458,284	800,000	-0,012	0,033
-457,270	-54,855	-0,090	0,029
-456,255	-200,000	0,004	0,104
-455,241	175,667	0,030	-0,031
-454,226	-200,000	0,006	0,028
-453,211	-89,040	0,022	0,005
-452,197	-102,084	0,093	0,016
-451,182	-200,000	0,032	0,106
-450,168	129,641	0,101	-0,094
-449,153	-200,000	0,028	0,101
-448,138	-118,565	0,117	0,015
-447,124	-200,000	-0,013	-0,184
-446,109	800,000	-0,015	-0,043
-445,095	-200,000	-0,009	-0,030
-444,080	-71,590	-0,094	-0,025
-443,065	380,074	0,014	-0,021
-442,051	168,674	0,029	-0,030
-441,036	-200,000	-0,005	0,021
-440,022	800,000	-0,042	-0,128
-439,007	-200,000	0,038	0,125
-437,992	491,237	0,059	0,098
-436,978	-200,000	0,003	0,119
-435,963	-99,452	0,082	-0,015
-434,949	249,281	-0,088	0,109
-433,934	-200,000	-0,030	-0,140
-432,919	-102,199	-0,219	-0,038
-431,905	89,791	-0,138	-0,112
-430,890	43,219	-0,041	0,027
-429,876	-200,000	0,037	0,171
-428,861	84,257	0,041	0,032
-427,846	20,247	0,046	0,027
-426,832	678,259	0,076	-0,144
-425,817	171,635	0,054	-0,057
-424,803	-11,342	-0,015	0,007
-423,788	-9,929	-0,038	-0,018
-422,773	-70,808	0,107	0,029
-421,759	22,176	-0,176	-0,104
-420,744	-200,000	0,014	0,046
-419,730	-27,210	0,097	0,041
-418,715	256,686	0,071	-0,089
-417,701	96,042	-0,095	-0,079
-416,686	800,000	-0,030	0,082
-415,671	800,000	-0,029	0,085
-414,657	800,000	0,062	0,146
-413,642	-95,035	0,123	0,024
-412,628	-31,239	-0,048	0,020
-411,613	-129,683	-0,136	-0,013
-410,598	35,968	0,092	-0,059
-409,584	-200,000	0,003	0,082
-408,569	61,843	0,015	0,011
-407,555	-21,166	-0,063	0,028
-406,540	-56,192	0,182	-0,059
-405,525	494,503	-0,038	0,063
-404,511	800,000	-0,036	-0,088
-403,496	-159,636	-0,067	0,003
-402,482	82,567	0,067	-0,053
-401,467	30,532	0,069	0,043
-400,452	253,034	-0,050	0,062
-399,438	-200,000	0,039	0,204
-398,423	74,730	0,150	0,115
-397,409	-16,131	0,109	0,050
-396,394	-115,136	0,099	0,014
-395,379	-200,000	-0,000	-0,184
-394,365	190,564	-0,036	-0,040
-393,350	-200,000	0,033	-0,121
-392,336	800,000	-0,042	0,121
-391,321	-200,000	-0,002	-0,059
-390,306	-200,000	-0,015	-0,116
-389,292	27,907	0,093	0,057
-388,277	-143,397	0,035	-0,002
-387,263	411,095	-0,040	0,061
-386,248	-200,000	0,023	0,106
-385,233	-200,000	0,027	0,135
-384,219	800,000	-0,017	0,035
-383,204	-97,383	-0,087	0,016
-382,190	-30,641	-0,081	-0,033
-381,175	94,054	0,046	-0,038
-380,160	55,006	0,116	0,081
-379,146	-183,202	0,142	-0,002
-378,131	-38,512	0,077	-0,029
-377,117	-77,989	0,069	0,017
-376,102	800,000	-0,047	0,128
-375,088	-200,000	0,003	0,029
-374,073	347,526	0,067	-0,097
-373,058	-5,864	0,076	-0,038
-372,044	30,700	0,012	0,007
-371,029	-106,645	-0,056	0,009
-370,015	800,000	0,011	-0,023
-369,000	-95,857	0,130	-0,025
-367,985	-60,875	-0,117	-0,036
-366,971	-200,000	-0,024	-0,086
-365,956	-72,967	0,101	0,027
-364,942	-8,908	0,069	-0,033
-363,927	160,161	0,050	0,051
-362,912	611,498	-0,028	0,051
-361,898	-200,000	-0,003	-0,042
-360,883	361,499	0,049	-0,072
-359,869	197,893	-0,073	-0,081
-358,854	-82,802	0,130	0,030
-357,839	-138,204	-0,119	0,009
-356,825	257,523	0,060	0,075
-355,810	-200,000	0,001	0,024
-354,796	17,231	0,068	-0,039
-353,781	107,136	0,069	-0,060
-352,766	-200,000	0,000	-0,069
-351,752	-126,747	-0,156	0,016
-350,737	-200,000	-0,004	0,052
-349,723	-112,289	-0,141	0,020
-348,708	104,133	-0,051	-0,043
-347,693	800,000	-0,049	-0,143
-346,679	800,000	0,021	-0,060
-345,664	1,548	-0,164	-0,086
-344,650	482,360	-0,060	-0,100
-343,635	11,876	0,047	-0,026
-342,620	453,266	0,052	0,084
-341,606	-200,000	0,007	0,062
-340,591	-123,290	0,053	0,006
-339,577	-63,988	-0,132	-0,039
-338,562	344,663	-0,042	-0,061
-337,548	-200,000	-0,010	0,064
-336,533	-51,916	0,047	0,016
-335,518	194,229	0,084	0,092
-334,504	800,000	0,042	0,128
-333,489	800,000	-0,027	-0,071
-332,475	323,054	-0,040	-0,055
-331,460	-54,800	0,132	-0,043
-330,445	-200,000	-0,001	-0,138
-329,431	-12,764	0,123	0,058
-328,416	81,099	-0,084	0,065
-327,402	800,000	-0,055	0,113
-326,387	-200,000	-0,025	0,202
-325,372	-200,000	-0,013	0,116
-324,358	-113,144	-0,024	-0,003
-323,343	-134,691	-0,065	-0,006
-322,329	800,000	-0,012	-0,033
-321,314	-76,483	0,092	0,023
-320,299	-200,000	0,034	0,129
-319,285	461,645	-0,055	0,090
-318,270	-138,102	-0,157	0,012
-317,256	-200,000	0,005	-0,061
-316,241	604,786	-0,074	-0,134
-315,226	114,952	0,123	-0,109
-314,212	-102,377	-0,137	0,024
-313,197	800,000	0,036	-0,078
-312,183	-93,324	-0,071	-0,014
-311,168	8,345	0,025	0,013
-310,153	-200,000	0,041	0,179
-309,139	800,000	0,041	-0,117
-308,124	-200,000	0,008	0,030
-307,110	99,279	0,037	0,031
-306,095	-47,221	0,050	0,018
-305,080	-35,021	0,118	0,046
-304,066	-154,001	0,028	-0,001
-303,051	135,470	-0,124	-0,117
-302,037	-71,987	-0,198	-0,053
-301,022	-23,620	0,108	0,047
-300,008	-77,206	0,047	-0,012
-298,993	52,687	0,221	-0,153
-297,978	8,439	-0,081	0,044
-296,964	-200,000	-0,010	-0,097
-295,949	-82,619	-0,122	-0,028
-294,935	-200,000	0,038	0,130
-293,920	489,728	0,034	0,056
-292,905	534,464	-0,028	-0,048
-291,891	-200,000	-0,033	0,201
-290,876	-200,000	0,007	0,222
-289,862	290,141	-0,082	-0,107
-288,847	423,841	0,029	-0,045
-287,832	800,000	0,021	-0,046
-286,818	443,743	-0,066	-0,105
-285,803	800,000	0,023	-0,047
-284,789	562,979	-0,044	0,077
-283,774	83,243	0,146	-0,115
-282,759	-118,447	-0,025	0,003
-281,745	239,183	-0,060	0,072
-280,730	800,000	0,048	-0,103
-279,716	-45,880	-0,097	0,035
-278,701	425,754	0,040	0,063
-277,686	234,028	0,046	0,055
-276,672	-145,802	0,024	-0,002
-275,657	800,000	-0,072	0,189
-274,643	48,353	-0,093	0,063
-273,628	-200,000	0,006	-0,060
-272,613	800,000	0,027	-0,068
-271,599	81,292	0,025	0,020
-270,584	4,109	0,119	0,063
-269,570	106,296	0,033	0,028
-268,555	555,069	-0,118	-0,206
-267,540	-200,000	0,015	0,089
-266,526	-72,178	-0,152	0,040
-265,511	-40,335	-0,040	-0,015
-264,497	59,935	-0,082	-0,059
-263,482	36,363	-0,046	0,029
-262,467	462,791	0,032	0,051
-261,453	-65,272	-0,013	0,004
-260,438	153,500	-0,037	0,037
-259,424	-143,279	0,013	-0,001
-258,409	-133,694	-0,094	0,008
-257,395	172,582	-0,075	-0,078
-256,380	-200,000	0,002	0,050
-255,365	-120,743	0,008	-0,001
-254,351	-200,000	-0,014	0,108
-253,336	1,690	0,068	0,035
-252,322	-32,117	-0,073	-0,029
-251,307	106,604	0,008	-0,007
-250,292	-200,000	-0,012	-0,039
-249,278	385,904	-0,038	0,056
-248,263	478,437	-0,062	0,102
-247,249	-92,096	0,090	0,018
-246,234	-119,978	0,137	-0,017
-245,219	267,011	-0,039	-0,049
-244,205	143,384	0,093	0,089
-243,190	-26,204	-0,116	0,049
-242,176	108,598	-0,039	0,034
-241,161	-69,749	0,074	0,020
-240,146	-200,000	0,029	0,169
-239,132	312,849	0,140	0,191
-238,117	77,660	0,026	-0,020
-237,103	40,916	0,082	0,053
-236,088	7,693	0,138	-0,075
-235,073	-200,000	-0,063	0,212
-234,059	121,763	-0,022	-0,020
-233,044	800,000	0,022	0,051
-232,030	608,081	0,015	-0,026
-231,015	75,950	0,111	-0,085
-230,000	16,574	0,026	-0,015
-228,986	192,584	0,085	0,093
-227,971	379,520	0,009	-0,013
-226,957	341,054	0,050	0,071
-225,942	456,160	0,038	-0,061
-224,927	-200,000	0,052	-0,187
-223,913	800,000	-0,029	0,064
-222,898	-98,653	-0,019	0,003
-221,884	-200,000	-0,015	-0,075
-220,869	249,281	0,017	-0,021
-219,855	401,684	-0,039	-0,059
-218,840	-200,000	0,019	-0,064
-217,825	-200,000	-0,007	-0,054
-216,811	-78,321	-0,137	-0,034
-215,796	-77,375	-0,057	0,014
-214,782	353,069	0,050	-0,071
-213,767	-44,989	-0,098	0,035
-212,752	-132,667	-0,039	0,004
-211,738	25,540	0,074	0,044
-210,723	-200,000	0,005	-0,043
-209,709	184,447	-0,047	-0,050
-208,694	800,000	-0,026	-0,080
-207,679	554,951	-0,029	-0,051
-206,665	-200,000	-0,005	0,078
-205,650	172,493	0,033	0,035
-204,636	800,000	-0,034	-0,094
-203,621	800,000	-0,026	-0,062
-202,606	-107,983	0,093	0,014
-201,592	465,462	0,067	-0,108
-200,577	292,311	-0,044	0,058
-199,563	-24,515	0,093	0,040
-198,548	12,878	0,096	0,053
-197,533	93,837	0,064	0,053
-196,519	-71,651	0,125	0,034
-195,504	-200,000	-0,012	-0,155
-194,490	-8,936	-0,094	0,045
-193,475	-200,000	0,033	-0,178
-192,460	-200,000	0,022	-0,186
-191,446	800,000	0,055	0,119
-190,431	800,000	-0,021	-0,050
-189,417	800,000	0,012	-0,034
-188,402	57,602	-0,045	0,031
-187,387	-93,371	-0,129	0,026
-186,373	-200,000	0,020	0,082
-185,358	-200,000	-0,002	0,154
-184,344	800,000	0,061	-0,170
-183,329	-94,215	0,142	-0,028
-182,315	696,598	0,064	0,122
-181,300	220,110	0,137	0,159
-180,285	156,236	-0,037	0,037
-179,271	-200,000	-0,029	-0,151
-178,256	-121,979	0,107	0,013
-177,242	-200,000	-0,090	0,000
-176,227	-147,729	0,097	0,006
-175,212	-101,937	-0,027	-0,005
-174,198	258,039	0,068	0,084
-173,183	-106,272	-0,083	-0,013
-172,169	139,169	0,009	-0,009
-171,154	-86,562	-0,041	-0,009
-170,139	-40,950	0,107	0,040
-169,125	712,944	-0,050	0,096
-168,110	-200,000	-0,026	-0,126
-167,096	586,144	0,047	-0,083
-166,081	-200,000	0,004	-0,091
-165,066	-190,026	-0,160	0,001
-164,052	800,000	0,022	0,064
-163,037	-200,000	-0,010	0,066
-162,023	800,000	0,043	0,130
-161,008	16,811	0,037	0,021
-159,993	800,000	0,037	-0,082
-158,979	42,578	0,006	0,004
-157,964	-29,747	0,026	0,011
-156,950	51,315	0,103	0,071
-155,935	-200,000	-0,001	-0,011
-154,920	-200,000	-0,015	-0,052
-153,906	-61,400	0,097	0,029
-152,891	-111,990	-0,132	0,019
-151,877	34,733	0,079	0,049
-150,862	266,191	-0,065	-0,082
-149,847	-49,363	0,040	-0,014
-148,833	189,315	0,009	-0,010
-147,818	79,770	0,023	0,018
-146,804	94,878	0,113	-0,092
-145,789	408,960	0,086	-0,131
-144,775	800,000	0,039	-0,079
-143,760	-56,710	-0,065	-0,021
-142,745	508,377	-0,051	-0,085
-141,731	457,264	0,084	-0,135
-140,716	800,000	-0,044	0,097
-139,702	-200,000	0,012	-0,056
-138,687	800,000	0,032	0,082
-137,672	800,000	-0,025	-0,054
-136,658	-200,000	0,030	-0,187
-135,643	-200,000	-0,023	0,158
-134,629	353,859	0,099	0,142
-133,614	193,352	0,050	-0,054
-132,599	403,329	0,020	0,030
-131,585	800,000	0,061	0,165
-130,570	-62,339	0,022	-0,006
-129,556	800,000	0,009	0,020
-128,541	540,034	-0,051	-0,088
-127,526	-200,000	-0,035	-0,129
-126,512	-110,430	0,062	-0,009
-125,497	79,153	0,101	0,078
-124,483	-200,000	-0,005	0,057
-123,468	-200,000	0,014	0,066
-122,453	-79,795	-0,134	-0,032
-121,439	487,842	-0,054	-0,090
-120,424	-21,329	-0,086	-0,038
-119,410	52,483	0,088	0,060
