DTS Sentinel unit serial number:	SN410029Multiplexer serial number:	ORYXHardware model number:	OX2-SRSoftware version number:	ORYX F/W v4,00 Oryx Data Collector v3.7.2.0data status	okinstallation	B6 Nyhavnadifferential loss correction	single-endedforward channel	channel 2reverse channel	N/Adate	2023/12/09time	04:10:08forward acquisition time	300,00reverse acquisition time	0,00gamma	499,1914k internal	0,3150k external	0,3150temperature offset calibration	1,0000default loss term (dB/km)	0,3820temperature slope calibration	1,0000multiplexer offset coefficient	1,0000multiplexer slope coefficient	1,0000fibre end	0,00T internal ref (°C)	16,80T ext. ref 1 (°C)	1,30T ext. ref 2 (°C)	1,30length (m)	temperature (°C)	Stokes	anti-Stokes-744,400	-139,896	0,163	0,013
-743,385	-100,566	-0,337	-0,061
-742,371	-200,000	-0,035	0,171
-741,356	-170,712	-0,305	-0,008
-740,342	-131,717	-0,014	-0,001
-739,327	-86,872	-0,332	0,074
-738,312	-200,000	0,007	0,069
-737,298	-104,006	-0,244	0,042
-736,283	-157,443	0,053	-0,002
-735,269	-13,650	-0,273	0,130
-734,254	228,570	0,083	0,100
-733,239	3,778	-0,463	-0,249
-732,225	12,688	0,076	0,043
-731,210	46,529	0,129	0,088
-730,196	150,817	-0,023	-0,024
-729,181	-37,478	-0,075	-0,029
-728,167	161,881	0,069	-0,072
-727,152	-200,000	-0,004	-0,078
-726,137	-17,953	-0,118	-0,054
-725,123	-200,000	0,006	0,073
-724,108	-117,754	-0,074	-0,010
-723,094	253,694	0,078	-0,098
-722,079	42,603	0,064	-0,043
-721,064	-200,000	-0,032	-0,113
-720,050	107,118	0,041	-0,036
-719,035	522,585	0,018	-0,032
-718,021	-45,395	-0,080	-0,029
-717,006	704,013	-0,043	-0,084
-715,991	-200,000	-0,010	0,075
-714,977	-200,000	-0,040	-0,147
-713,962	-200,000	-0,004	0,114
-712,948	-200,000	0,007	-0,022
-711,933	800,000	0,024	-0,055
-710,918	-200,000	-0,011	0,035
-709,904	631,509	-0,028	-0,053
-708,889	-200,000	-0,009	-0,128
-707,875	93,154	0,084	-0,070
-706,860	800,000	0,081	-0,166
-705,845	35,587	0,057	-0,037
-704,831	-200,000	0,012	0,060
-703,816	-133,876	-0,072	0,007
-702,802	268,384	0,043	-0,055
-701,787	138,719	0,082	0,080
-700,772	-52,159	-0,052	-0,018
-699,758	55,101	-0,095	-0,068
-698,743	87,485	-0,078	-0,064
-697,729	361,141	0,075	0,112
-696,714	-200,000	-0,010	0,059
-695,699	800,000	-0,013	-0,037
-694,685	-200,000	-0,013	-0,133
-693,670	570,224	-0,021	-0,038
-692,656	618,912	-0,014	-0,027
-691,641	-32,313	-0,045	0,018
-690,627	800,000	0,024	-0,068
-689,612	65,754	0,044	0,033
-688,597	-200,000	0,000	0,014
-687,583	-61,209	-0,149	0,046
-686,568	-3,928	-0,038	-0,019
-685,554	-127,184	-0,110	-0,012
-684,539	30,108	-0,017	-0,011
-683,524	-195,635	-0,034	0,000
-682,510	618,336	-0,048	0,089
-681,495	103,074	-0,048	-0,042
-680,481	47,535	0,050	0,035
-679,466	170,133	0,027	-0,028
-678,451	138,869	0,023	0,022
-677,437	-200,000	-0,001	-0,165
-676,422	800,000	0,020	0,057
-675,408	89,066	0,124	0,102
-674,393	257,227	-0,049	0,062
-673,378	-124,307	-0,152	0,017
-672,364	442,657	-0,064	0,104
-671,349	-114,714	-0,052	0,007
-670,335	-121,284	-0,106	-0,013
-669,320	497,286	0,042	-0,072
-668,305	-51,864	0,121	0,041
-667,291	-64,814	-0,142	-0,042
-666,276	-15,865	-0,087	0,041
-665,262	12,976	-0,142	-0,080
-664,247	289,454	-0,020	-0,027
-663,232	-200,000	-0,006	0,098
-662,218	149,041	0,058	0,058
-661,203	127,660	-0,069	0,065
-660,189	582,773	0,083	0,150
-659,174	200,509	-0,058	0,066
-658,159	-33,721	-0,110	0,044
-657,145	149,342	-0,087	0,086
-656,130	-85,944	0,042	-0,010
-655,116	-200,000	-0,003	0,094
-654,101	240,250	0,044	-0,054
-653,086	178,717	-0,084	0,091
-652,072	248,283	-0,089	0,112
-651,057	800,000	-0,057	-0,118
-650,043	-200,000	0,007	-0,180
-649,028	800,000	-0,038	0,118
-648,014	800,000	-0,021	0,052
-646,999	100,895	-0,016	-0,014
-645,984	-144,315	-0,054	0,004
-644,970	-200,000	-0,016	-0,065
-643,955	-200,000	0,027	-0,114
-642,941	143,571	-0,103	-0,101
-641,926	-104,741	0,093	0,016
-640,911	-69,981	0,118	0,033
-639,897	-61,408	0,087	0,027
-638,882	119,086	0,121	-0,110
-637,868	-85,235	-0,123	0,028
-636,853	800,000	0,061	-0,140
-635,838	800,000	-0,041	-0,119
-634,824	744,670	0,032	-0,064
-633,809	-126,107	-0,048	0,005
-632,795	-200,000	0,012	-0,054
-631,780	-200,000	-0,013	0,096
-630,765	800,000	0,035	-0,088
-629,751	-77,412	-0,102	-0,026
-628,736	800,000	-0,067	0,149
-627,722	649,466	-0,030	0,057
-626,707	-147,874	-0,076	-0,005
-625,692	235,551	-0,106	-0,129
-624,678	800,000	0,024	0,073
-623,663	215,513	-0,052	0,061
-622,649	-200,000	0,006	-0,050
-621,634	-114,128	-0,055	0,008
-620,619	402,919	0,028	0,044
-619,605	173,724	-0,049	0,052
-618,590	-39,345	-0,102	-0,039
-617,576	10,057	0,093	-0,052
-616,561	186,517	0,031	-0,034
-615,546	-200,000	0,002	-0,086
-614,532	-167,447	0,085	0,002
-613,517	146,325	0,094	-0,093
-612,503	800,000	0,022	0,049
-611,488	389,304	-0,030	0,045
-610,474	43,391	-0,047	0,031
-609,459	-79,963	-0,056	-0,014
-608,444	195,065	-0,092	-0,103
-607,430	231,878	-0,044	-0,053
-606,415	-200,000	-0,015	-0,052
-605,401	-200,000	0,024	-0,080
-604,386	15,209	-0,097	0,056
-603,371	-200,000	0,010	-0,041
-602,357	586,541	0,021	-0,038
-601,342	12,175	-0,099	0,056
-600,328	209,670	0,017	-0,019
-599,313	-200,000	-0,006	0,098
-598,298	764,632	0,041	0,082
-597,284	800,000	0,029	0,075
-596,269	-139,025	0,156	0,012
-595,255	174,206	0,023	-0,024
-594,240	-200,000	0,014	0,066
-593,225	-104,279	-0,167	0,028
-592,211	10,932	0,037	-0,021
-591,196	-87,266	-0,075	0,017
-590,182	108,039	0,102	0,089
-589,167	245,168	-0,035	0,043
-588,152	-200,000	0,015	0,050
-587,138	-24,699	0,115	-0,050
-586,123	800,000	0,008	0,019
-585,109	523,102	-0,059	-0,103
-584,094	-11,138	0,074	-0,036
-583,079	-200,000	0,043	0,165
-582,065	-11,576	0,032	0,016
-581,050	-35,348	-0,024	0,009
-580,036	786,229	-0,022	0,045
-579,021	800,000	0,005	0,011
-578,006	28,389	0,053	-0,033
-576,992	800,000	0,017	-0,049
-575,977	68,405	0,170	0,128
-574,963	224,053	0,033	0,039
-573,948	-200,000	0,020	0,079
-572,934	504,536	-0,038	0,064
-571,919	59,533	-0,083	0,060
-570,904	21,096	-0,101	-0,060
-569,890	-40,940	-0,061	-0,023
-568,875	49,000	0,038	-0,026
-567,861	-85,241	0,059	-0,013
-566,846	800,000	0,026	0,075
-565,831	-200,000	-0,005	-0,098
-564,817	379,792	0,077	-0,116
-563,802	376,536	-0,070	-0,105
-562,788	-200,000	-0,006	0,110
-561,773	734,266	0,017	-0,033
-560,758	-121,662	-0,002	-0,000
-559,744	664,054	-0,009	-0,017
-558,729	45,279	-0,053	-0,036
-557,715	-38,438	-0,062	-0,024
-556,700	-79,246	-0,082	0,020
-555,685	564,520	0,038	0,068
-554,671	176,766	0,027	-0,029
-553,656	-200,000	-0,001	0,026
-552,642	-130,359	0,019	-0,002
-551,627	110,393	0,059	0,052
-550,612	800,000	0,042	0,124
-549,598	-154,138	-0,074	-0,004
-548,583	104,299	0,106	-0,092
-547,569	-118,799	0,111	0,014
-546,554	-200,000	0,005	0,032
-545,539	65,249	0,048	0,036
-544,525	-52,728	-0,083	0,028
-543,510	-44,707	-0,055	-0,020
-542,496	-51,096	0,070	0,024
-541,481	10,820	0,040	-0,022
-540,466	202,643	-0,027	-0,031
-539,452	-200,000	0,023	0,104
-538,437	455,891	0,127	0,207
-537,423	419,248	-0,076	0,119
-536,408	-196,470	-0,126	0,001
-535,393	38,080	0,035	-0,023
-534,379	-35,649	0,080	0,032
-533,364	-3,701	0,018	0,009
-532,350	98,203	-0,112	-0,094
-531,335	800,000	-0,047	0,113
-530,321	495,695	-0,034	-0,057
-529,306	-15,994	-0,193	-0,089
-528,291	149,489	0,124	-0,123
-527,277	-11,271	-0,097	0,047
-526,262	-33,334	0,071	0,028
-525,248	-200,000	-0,018	-0,067
-524,233	-200,000	-0,013	0,072
-523,218	-104,783	-0,148	0,025
-522,204	-51,750	-0,071	0,024
-521,189	-200,000	0,028	0,103
-520,175	188,136	-0,043	0,048
-519,160	337,653	-0,057	-0,081
-518,145	-200,000	0,003	0,121
-517,131	364,064	0,063	0,093
-516,116	-190,088	0,101	-0,001
-515,102	-13,926	0,047	-0,022
-514,087	214,414	-0,078	-0,091
-513,072	-54,406	-0,058	-0,019
-512,058	800,000	-0,030	-0,070
-511,043	5,757	-0,092	-0,050
-510,029	-200,000	0,020	0,076
-509,014	40,181	0,016	-0,011
-507,999	546,474	-0,047	-0,083
-506,985	37,144	-0,110	0,071
-505,970	48,020	0,056	-0,038
-504,956	21,862	0,084	-0,050
-503,941	-83,451	-0,032	-0,007
-502,926	800,000	0,038	-0,109
-501,912	256,511	0,059	-0,074
-500,897	-200,000	0,001	-0,137
-499,883	561,781	0,030	0,053
-498,868	80,596	-0,055	0,044
-497,853	-200,000	0,009	0,064
-496,839	-131,976	-0,075	-0,007
-495,824	157,618	0,117	0,118
-494,810	579,760	-0,039	-0,070
-493,795	186,933	0,032	0,035
-492,781	-9,999	-0,029	0,014
-491,766	800,000	-0,038	-0,123
-490,751	19,565	0,086	-0,051
-489,737	800,000	0,025	-0,056
-488,722	-200,000	-0,006	-0,081
-487,708	218,457	0,081	0,095
-486,693	26,285	-0,030	-0,018
-485,678	800,000	0,017	0,040
-484,664	109,073	0,166	-0,146
-483,649	800,000	-0,056	-0,166
-482,635	427,491	0,070	-0,110
-481,620	54,992	0,107	0,075
-480,605	-128,551	-0,175	-0,018
-479,591	-200,000	0,015	0,118
-478,576	-200,000	-0,007	-0,038
-477,562	29,587	-0,071	-0,044
-476,547	-200,000	-0,011	-0,076
-475,532	-200,000	0,006	0,044
-474,518	-15,759	0,045	0,021
-473,503	800,000	-0,014	0,032
-472,489	-37,437	0,062	0,024
-471,474	-72,302	0,040	0,011
-470,459	527,469	0,051	0,089
-469,445	-51,027	0,083	-0,028
-468,430	-20,836	-0,026	0,012
-467,416	-78,227	-0,020	0,005
-466,401	140,145	-0,088	0,085
-465,386	-54,716	-0,057	-0,019
-464,372	-200,000	-0,004	0,042
-463,357	460,630	0,099	-0,161
-462,343	-54,169	-0,026	-0,009
-461,328	110,423	-0,074	-0,065
-460,313	44,022	-0,057	-0,038
-459,299	235,865	-0,044	0,054
-458,284	7,591	0,057	-0,031
-457,270	-143,488	-0,136	-0,009
-456,255	135,429	-0,035	0,033
-455,241	226,671	-0,041	-0,049
-454,226	512,593	-0,068	-0,116
-453,211	-200,000	-0,003	-0,067
-452,197	209,743	0,046	-0,053
-451,182	62,054	-0,051	0,037
-450,168	42,855	-0,084	-0,056
-449,153	-39,887	-0,093	-0,035
-448,138	-157,177	0,130	-0,006
-447,124	800,000	-0,013	0,030
-446,109	258,415	0,046	0,058
-445,095	800,000	0,018	-0,038
-444,080	-200,000	-0,004	0,055
-443,065	-61,347	0,043	-0,013
-442,051	-114,042	-0,037	0,005
-441,036	-119,119	0,143	0,018
-440,022	-200,000	-0,028	-0,194
-439,007	178,436	0,034	0,037
-437,992	-200,000	0,015	0,132
-436,978	-200,000	-0,025	0,131
-435,963	137,443	0,060	-0,057
-434,949	-200,000	-0,002	0,011
-433,934	800,000	-0,103	-0,222
-432,919	201,063	0,065	0,073
-431,905	-75,317	0,100	0,026
-430,890	-104,390	-0,110	-0,018
-429,876	-200,000	-0,041	0,145
-428,861	443,016	-0,010	0,017
-427,846	-15,846	-0,107	0,050
-426,832	542,412	-0,048	0,085
-425,817	-200,000	0,005	0,056
-424,803	-6,208	-0,019	-0,009
-423,788	-200,000	-0,014	-0,061
-422,773	-103,775	0,089	-0,015
-421,759	-200,000	0,005	0,115
-420,744	660,902	0,023	-0,043
-419,730	56,628	-0,143	-0,102
-418,715	296,717	0,024	-0,033
-417,701	-73,144	-0,045	0,012
-416,686	-138,206	-0,063	-0,005
-415,671	-46,778	0,108	0,038
-414,657	-11,080	0,033	-0,016
-413,642	-114,774	0,052	-0,007
-412,628	800,000	0,056	-0,158
-411,613	-37,965	0,044	0,017
-410,598	-88,022	-0,020	-0,004
-409,584	800,000	0,020	0,052
-408,569	-200,000	0,002	0,048
-407,555	-200,000	0,007	0,023
-406,540	172,986	0,084	0,089
-405,525	800,000	-0,038	0,079
-404,511	32,198	-0,144	-0,090
-403,496	18,261	-0,050	-0,029
-402,482	16,291	-0,113	0,065
-401,467	800,000	-0,041	0,111
-400,452	381,865	0,090	-0,135
-399,438	125,075	-0,049	0,045
-398,423	518,907	-0,030	0,052
-397,409	0,704	-0,061	0,032
-396,394	220,096	-0,040	-0,047
-395,379	-200,000	-0,009	-0,051
-394,365	-52,487	0,041	-0,014
-393,350	-56,638	0,060	0,019
-392,336	-182,717	0,121	-0,002
-391,321	289,893	-0,078	-0,104
-390,306	85,946	-0,152	-0,122
-389,292	800,000	0,073	-0,225
-388,277	447,884	-0,018	-0,028
-387,263	-150,428	0,052	-0,003
-386,248	-200,000	0,023	0,110
-385,233	599,449	-0,050	0,091
-384,219	-59,737	0,064	-0,020
-383,204	103,000	-0,096	0,082
-382,190	425,408	-0,078	-0,123
-381,175	176,102	0,111	-0,117
-380,160	-107,846	0,098	0,015
-379,146	94,462	0,011	0,009
-378,131	54,034	-0,074	-0,051
-377,117	-150,787	0,100	-0,005
-376,102	-200,000	0,015	0,128
-375,088	305,958	-0,080	-0,108
-374,073	-200,000	-0,008	-0,044
-373,058	800,000	-0,004	0,010
-372,044	406,306	0,047	0,072
-371,029	-200,000	-0,010	-0,072
-370,015	-200,000	0,006	0,125
-369,000	-138,879	0,078	-0,006
-367,985	102,028	-0,082	-0,070
-366,971	-200,000	-0,007	-0,080
-365,956	320,380	0,074	0,103
-364,942	-200,000	-0,006	0,029
-363,927	-200,000	-0,011	0,052
-362,912	-81,344	0,069	-0,016
-361,898	-15,274	-0,090	0,042
-360,883	-200,000	-0,012	0,056
-359,869	93,163	0,064	-0,053
-358,854	-68,880	-0,040	-0,011
-357,839	-200,000	0,022	0,079
-356,825	800,000	0,044	0,113
-355,810	-51,505	0,069	-0,023
-354,796	800,000	-0,016	-0,037
-353,781	414,258	0,044	-0,068
-352,766	-96,761	-0,050	0,010
-351,752	-30,216	-0,024	0,010
-350,737	-200,000	-0,024	-0,087
-349,723	485,812	0,067	0,112
-348,708	649,016	0,088	0,165
-347,693	594,235	-0,062	0,112
-346,679	263,339	0,074	-0,094
-345,664	-15,762	0,047	-0,022
-344,650	-200,000	-0,021	0,069
-343,635	800,000	0,032	-0,098
-342,620	-82,265	0,125	0,029
-341,606	-200,000	0,024	0,085
-340,591	800,000	0,048	0,102
-339,577	-200,000	-0,003	-0,101
-338,562	-200,000	0,027	-0,096
-337,548	14,857	-0,018	0,010
-336,533	72,884	-0,059	0,044
-335,518	-200,000	0,036	0,241
-334,504	-200,000	0,009	0,043
-333,489	-173,395	0,063	0,001
-332,475	-200,000	-0,060	-0,221
-331,460	-200,000	-0,009	-0,031
-330,445	-200,000	0,016	-0,088
-329,431	-39,667	0,109	0,041
-328,416	-3,181	-0,105	-0,053
-327,402	587,708	-0,024	0,043
-326,387	-125,044	-0,058	0,006
-325,372	-159,136	-0,066	0,003
-324,358	-200,000	0,021	-0,186
-323,343	29,115	-0,020	0,012
-322,329	-62,048	-0,194	0,058
-321,314	-133,660	0,058	-0,005
-320,299	800,000	-0,017	0,049
-319,285	-88,136	0,161	0,035
-318,270	12,550	-0,077	0,043
-317,256	-200,000	0,002	-0,033
-316,241	800,000	-0,058	0,142
-315,226	-200,000	-0,009	0,038
-314,212	-131,558	0,070	-0,007
-313,197	800,000	0,029	-0,082
-312,183	800,000	0,034	0,104
-311,168	800,000	-0,042	0,088
-310,153	176,463	-0,074	-0,078
-309,139	25,262	0,064	0,039
-308,124	203,409	0,067	0,075
-307,110	-200,000	-0,014	-0,109
-306,095	300,401	-0,048	0,064
-305,080	-181,881	-0,037	0,000
-304,066	-127,042	-0,053	0,006
-303,051	618,627	-0,053	-0,096
-302,037	328,127	0,036	0,050
-301,022	-27,039	0,098	0,041
-300,008	-200,000	0,008	-0,076
-298,993	128,555	-0,022	0,021
-297,978	-200,000	-0,029	0,202
-296,964	-200,000	0,001	-0,090
-295,949	-200,000	0,010	-0,041
-294,935	52,307	-0,090	-0,062
-293,920	-143,033	0,063	-0,004
-292,905	-200,000	0,016	0,101
-291,891	800,000	0,047	-0,124
-290,876	-153,501	-0,049	-0,002
-289,862	145,643	-0,028	-0,027
-288,847	495,912	-0,064	0,108
-287,832	248,086	-0,040	-0,049
-286,818	104,807	0,078	0,067
-285,803	-3,520	0,017	-0,009
-284,789	-200,000	0,005	0,088
-283,774	-166,510	0,060	0,002
-282,759	5,890	0,098	-0,052
-281,745	-118,057	-0,099	0,013
-280,730	-3,826	-0,096	-0,048
-279,716	-200,000	-0,029	0,100
-278,701	-200,000	0,032	-0,115
-277,686	167,323	0,105	0,108
-276,672	-75,652	0,148	0,038
-275,657	-200,000	0,031	-0,125
-274,643	-200,000	0,004	-0,074
-273,628	179,086	-0,083	-0,088
-272,613	1,206	-0,008	-0,004
-271,599	800,000	-0,022	-0,050
-270,584	347,465	0,074	0,106
-269,570	-101,038	-0,062	-0,011
-268,555	-172,557	0,084	-0,002
-267,540	-126,185	0,081	0,009
-266,526	-200,000	-0,033	-0,109
-265,511	-165,667	0,027	0,001
-264,497	-200,000	0,034	-0,146
-263,482	-53,292	-0,099	-0,033
-262,467	-18,825	-0,121	0,055
-261,453	800,000	-0,010	-0,020
-260,438	-200,000	-0,001	-0,029
-259,424	577,660	-0,043	-0,077
-258,409	79,912	-0,075	-0,058
-257,395	246,530	0,050	0,062
-256,380	-200,000	-0,038	0,135
-255,365	-35,094	0,046	0,018
-254,351	27,796	-0,068	-0,042
-253,336	-25,894	0,138	-0,059
-252,322	137,584	-0,151	-0,143
-251,307	-80,002	-0,107	0,026
-250,292	91,997	-0,095	-0,077
-249,278	281,491	0,048	0,063
-248,263	800,000	-0,011	0,036
-247,249	93,228	-0,041	-0,033
-246,234	-200,000	-0,016	0,068
-245,219	-200,000	0,032	0,108
-244,205	-200,000	0,004	-0,052
-243,190	-167,152	0,145	0,004
-242,176	151,782	0,063	-0,062
-241,161	373,646	0,083	-0,123
-240,146	-50,778	-0,128	-0,044
-239,132	58,206	-0,084	-0,060
-238,117	338,842	-0,026	-0,037
-237,103	-200,000	0,012	-0,130
-236,088	-200,000	-0,004	0,059
-235,073	-39,089	0,159	-0,060
-234,059	359,453	-0,051	0,075
-233,044	-94,578	0,051	-0,010
-232,030	-200,000	-0,024	-0,155
-231,015	29,346	-0,018	-0,011
-230,000	620,746	0,056	-0,102
-228,986	-200,000	-0,014	0,095
-227,971	209,683	-0,100	0,113
-226,957	-200,000	0,007	0,137
-225,942	800,000	-0,026	0,081
-224,927	139,991	0,070	0,067
-223,913	100,875	0,061	-0,052
-222,898	633,833	0,032	0,058
-221,884	-97,266	-0,109	-0,020
-220,869	194,030	-0,058	-0,064
-219,855	-55,790	0,161	0,052
-218,840	800,000	0,029	0,060
-217,825	45,906	-0,034	0,023
-216,811	144,320	0,129	-0,124
-215,796	712,884	0,031	-0,059
-214,782	800,000	0,036	-0,075
-213,767	-85,942	-0,049	-0,011
-212,752	170,548	-0,053	0,054
-211,738	-72,135	0,052	0,014
-210,723	-8,169	-0,105	-0,051
-209,709	17,403	-0,090	0,052
-208,694	-61,737	-0,068	-0,020
-207,679	-86,918	0,077	-0,017
-206,665	716,782	0,080	0,154
-205,650	-135,316	0,097	-0,008
-204,636	-200,000	-0,002	0,081
-203,621	138,662	-0,034	0,032
-202,606	333,324	-0,065	-0,091
-201,592	687,730	0,013	0,024
-200,577	60,985	-0,063	0,045
-199,563	115,232	-0,051	-0,046
-198,548	-74,096	0,060	0,016
-197,533	128,579	0,098	0,090
-196,519	800,000	0,030	-0,075
-195,504	136,020	-0,088	-0,083
-194,490	300,473	-0,061	0,081
-193,475	75,296	0,083	0,064
-192,460	-33,125	0,079	0,032
-191,446	-200,000	0,007	0,129
-190,431	-38,894	-0,104	0,039
-189,417	661,213	0,042	-0,078
-188,402	-147,682	-0,021	-0,001
-187,387	421,655	-0,078	-0,122
-186,373	477,777	-0,023	-0,038
-185,358	66,431	0,029	0,021
-184,344	21,853	0,167	0,098
-183,329	-105,420	0,138	-0,023
-182,315	88,279	0,013	0,011
-181,300	-100,673	-0,111	0,020
-180,285	-11,790	-0,047	-0,022
-179,271	-200,000	0,003	0,058
-178,256	-101,696	0,120	-0,021
-177,242	-200,000	-0,003	0,035
-176,227	565,820	0,032	-0,057
-175,212	3,171	-0,109	-0,057
-174,198	131,380	0,011	0,010
-173,183	-200,000	-0,009	-0,080
-172,169	441,320	-0,047	-0,075
-171,154	-200,000	0,026	-0,193
-170,139	-140,718	-0,151	0,011
-169,125	800,000	0,008	0,021
-168,110	642,382	-0,085	0,157
-167,096	-86,105	0,056	-0,012
-166,081	116,981	0,025	0,022
-165,066	202,251	0,053	0,060
-164,052	-200,000	0,001	-0,017
-163,037	3,792	0,102	0,054
-162,023	290,556	0,103	0,135
-161,008	800,000	-0,040	0,109
-159,993	86,627	-0,044	0,035
-158,979	88,474	-0,034	0,027
-157,964	-1,318	-0,080	-0,041
-156,950	-45,404	0,126	-0,045
-155,935	-200,000	0,014	0,184
-154,920	-200,000	0,116	-0,000
-153,906	800,000	0,066	0,153
-152,891	715,440	-0,032	-0,062
-151,877	497,317	0,057	0,094
-150,862	208,170	0,080	-0,090
-149,847	-200,000	-0,003	-0,062
-148,833	800,000	-0,025	-0,054
-147,818	58,503	0,037	-0,026
-146,804	141,543	0,101	-0,097
-145,789	-26,673	-0,007	-0,003
-144,775	102,079	0,110	-0,092
-143,760	-80,912	-0,041	0,010
-142,745	-200,000	0,006	0,043
-141,731	-133,211	0,125	-0,011
-140,716	-36,138	0,102	-0,040
-139,702	509,067	-0,047	0,079
-138,687	302,467	0,073	0,098
-137,672	276,080	0,039	-0,051
-136,658	36,756	0,064	0,041
-135,643	-200,000	0,001	0,049
-134,629	-200,000	0,033	0,163
-133,614	-164,288	-0,075	0,002
-132,599	800,000	0,015	0,033
-131,585	-60,872	-0,132	0,040
-130,570	-105,171	-0,029	-0,005
-129,556	781,331	-0,044	-0,087
-128,541	142,494	0,117	-0,112
-127,526	800,000	-0,041	0,122
-126,512	194,348	0,055	0,060
-125,497	-144,855	0,096	0,006
-124,483	-200,000	0,000	0,122
-123,468	-200,000	0,006	0,099
-122,453	-200,000	-0,006	-0,069
-121,439	238,237	-0,037	-0,044
-120,424	787,332	-0,044	-0,088
-119,410	256,697	0,044	0,054
