DTS Sentinel unit serial number:	SN410029Multiplexer serial number:	ORYXHardware model number:	OX2-SRSoftware version number:	ORYX F/W v4,00 Oryx Data Collector v3.7.2.0data status	okinstallation	B6 Nyhavnadifferential loss correction	single-endedforward channel	channel 2reverse channel	N/Adate	2023/12/09time	18:45:08forward acquisition time	300,00reverse acquisition time	0,00gamma	499,1914k internal	0,3130k external	0,3130temperature offset calibration	1,0000default loss term (dB/km)	0,3820temperature slope calibration	1,0000multiplexer offset coefficient	1,0000multiplexer slope coefficient	1,0000fibre end	0,00T internal ref (°C)	21,05T ext. ref 1 (°C)	4,72T ext. ref 2 (°C)	4,72length (m)	temperature (°C)	Stokes	anti-Stokes-744,400	-34,586	0,108	-0,044
-743,385	-114,040	-0,302	0,043
-742,371	677,960	-0,058	0,114
-741,356	14,707	-0,240	0,139
-740,342	-185,297	0,179	-0,002
-739,327	10,852	-0,123	0,070
-738,312	-180,559	0,018	-0,000
-737,298	-23,875	-0,145	0,064
-736,283	-179,471	0,112	-0,002
-735,269	-29,654	-0,223	0,094
-734,254	-85,346	0,070	-0,016
-733,239	-30,317	-0,400	-0,168
-732,225	119,364	0,048	0,044
-731,210	604,167	0,054	-0,100
-730,196	-200,000	0,026	0,093
-729,181	26,141	0,066	0,041
-728,167	800,000	-0,056	0,131
-727,152	108,858	0,035	-0,031
-726,137	164,734	-0,090	-0,094
-725,123	603,180	-0,058	-0,108
-724,108	313,277	-0,105	-0,148
-723,094	800,000	0,045	-0,103
-722,079	58,386	-0,012	0,009
-721,064	-9,567	0,066	0,033
-720,050	-13,815	-0,074	-0,035
-719,035	-200,000	-0,048	0,164
-718,021	-100,195	-0,043	-0,008
-717,006	800,000	-0,026	-0,079
-715,991	-200,000	-0,052	-0,216
-714,977	107,036	-0,155	-0,137
-713,962	729,018	0,035	0,069
-712,948	-117,886	0,147	-0,019
-711,933	-200,000	-0,010	0,105
-710,918	-64,688	0,074	0,022
-709,904	39,955	-0,142	-0,095
-708,889	628,675	0,054	-0,101
-707,875	187,108	-0,059	-0,065
-706,860	-200,000	-0,007	0,056
-705,845	-200,000	-0,015	-0,064
-704,831	-200,000	-0,005	0,065
-703,816	-200,000	-0,017	0,141
-702,802	52,994	0,097	-0,069
-701,787	59,153	-0,146	-0,107
-700,772	88,476	-0,078	0,064
-699,758	-200,000	0,001	0,025
-698,743	-83,094	0,084	-0,020
-697,729	-21,772	0,089	-0,040
-696,714	-178,815	-0,090	0,001
-695,699	-200,000	0,018	0,095
-694,685	355,201	-0,086	-0,127
-693,670	-200,000	0,016	-0,153
-692,656	528,766	-0,020	0,035
-691,641	598,909	0,015	-0,028
-690,627	-100,182	0,109	-0,020
-689,612	251,796	-0,037	0,046
-688,597	-50,568	-0,038	0,013
-687,583	191,474	-0,049	-0,055
-686,568	800,000	0,038	0,081
-685,554	60,508	0,076	-0,056
-684,539	108,988	0,062	0,055
-683,524	67,757	-0,069	-0,052
-682,510	800,000	-0,017	-0,035
-681,495	-50,950	-0,088	0,031
-680,481	614,482	-0,064	0,120
-679,466	-200,000	0,001	-0,131
-678,451	-200,000	0,009	-0,046
-677,437	-200,000	0,000	-0,112
-676,422	192,613	-0,087	0,097
-675,408	-200,000	0,013	-0,106
-674,393	-200,000	-0,009	0,064
-673,378	466,054	-0,054	0,090
-672,364	429,168	0,056	0,090
-671,349	-200,000	0,003	0,015
-670,335	-101,788	0,033	-0,006
-669,320	800,000	-0,049	-0,134
-668,305	18,766	0,137	0,081
-667,291	-157,852	0,096	-0,004
-666,276	51,834	-0,158	0,112
-665,262	-114,616	0,105	-0,015
-664,247	-200,000	-0,116	0,000
-663,232	-103,954	-0,108	0,019
-662,218	-143,193	0,092	0,006
-661,203	676,737	-0,062	-0,119
-660,189	360,208	0,027	0,040
-659,174	455,682	-0,101	-0,167
-658,159	-109,323	-0,168	0,026
-657,145	800,000	-0,050	0,160
-656,130	800,000	-0,032	-0,089
-655,116	34,049	0,080	0,051
-654,101	-200,000	0,012	-0,041
-653,086	26,982	-0,107	-0,066
-652,072	88,289	-0,034	-0,028
-651,057	-200,000	0,012	0,103
-650,043	-200,000	-0,014	-0,165
-649,028	-23,917	-0,050	-0,022
-648,014	30,280	0,102	-0,065
-646,999	-200,000	0,005	-0,062
-645,984	-38,068	0,063	0,025
-644,970	124,511	0,036	0,033
-643,955	743,502	0,030	0,061
-642,941	99,298	0,096	-0,083
-641,926	800,000	0,053	-0,158
-640,911	104,220	-0,085	-0,074
-639,897	800,000	0,031	0,076
-638,882	355,931	0,043	-0,063
-637,868	-125,672	-0,146	-0,016
-636,853	-37,307	-0,127	0,050
-635,838	-200,000	0,000	-0,103
-634,824	-200,000	0,009	-0,090
-633,809	1,856	0,134	-0,071
-632,795	-200,000	-0,021	0,094
-631,780	-200,000	-0,024	0,145
-630,765	-200,000	-0,047	-0,168
-629,751	-200,000	-0,006	0,028
-628,736	123,004	0,076	0,071
-627,722	-200,000	0,000	-0,079
-626,707	-70,925	0,084	-0,023
-625,692	-104,907	-0,088	0,015
-624,678	-200,000	0,034	0,182
-623,663	-200,000	0,000	0,022
-622,649	-200,000	0,018	-0,125
-621,634	155,589	-0,058	0,059
-620,619	66,661	-0,127	0,096
-619,605	360,593	0,056	0,083
-618,590	-65,070	-0,092	0,027
-617,576	800,000	-0,036	0,116
-616,561	-37,431	-0,009	0,004
-615,546	800,000	0,028	0,066
-614,532	-200,000	0,016	-0,171
-613,517	-200,000	-0,005	-0,048
-612,503	-55,087	-0,109	-0,036
-611,488	-57,938	0,113	0,036
-610,474	-111,353	-0,146	-0,022
-609,459	110,902	0,079	-0,070
-608,444	115,684	-0,166	-0,151
-607,430	800,000	-0,038	-0,084
-606,415	-200,000	0,008	-0,043
-605,401	-120,228	-0,075	-0,009
-604,386	145,020	-0,115	0,114
-603,371	-29,328	0,186	-0,079
-602,357	772,834	0,052	-0,106
-601,342	92,984	-0,034	0,029
-600,328	38,800	0,097	0,064
-599,313	-6,507	-0,086	0,043
-598,298	335,759	-0,006	-0,008
-597,284	-200,000	0,017	0,088
-596,269	-83,247	-0,010	0,002
-595,255	-78,982	-0,076	0,019
-594,240	-35,177	0,114	-0,046
-593,225	-200,000	-0,016	-0,152
-592,211	219,624	-0,065	-0,077
-591,196	-200,000	0,019	-0,065
-590,182	-34,662	0,155	-0,062
-589,167	128,804	0,123	0,116
-588,152	-35,809	-0,052	-0,021
-587,138	-53,253	-0,031	0,010
-586,123	20,176	0,116	-0,069
-585,109	-127,057	-0,075	0,008
-584,094	800,000	0,014	-0,030
-583,079	-200,000	-0,020	0,103
-582,065	-30,427	-0,013	0,005
-581,050	-200,000	0,004	0,137
-580,036	-65,923	0,074	-0,022
-579,021	-200,000	-0,058	0,193
-578,006	306,041	0,069	-0,096
-576,992	17,992	-0,028	0,016
-575,977	800,000	-0,030	0,066
-574,963	-168,236	0,124	-0,003
-573,948	-91,444	-0,083	0,017
-572,934	-6,645	0,107	-0,053
-571,919	-200,000	0,025	-0,090
-570,904	-104,113	-0,034	-0,006
-569,890	-109,939	-0,024	0,004
-568,875	306,021	0,021	-0,030
-567,861	-38,392	-0,106	-0,041
-566,846	52,395	-0,020	0,014
-565,831	-200,000	0,012	0,068
-564,817	145,494	-0,070	-0,069
-563,802	800,000	0,045	-0,124
-562,788	-184,871	0,059	-0,001
-561,773	-117,433	-0,043	0,006
-560,758	-2,139	-0,031	-0,016
-559,744	65,845	0,102	0,077
-558,729	10,964	0,065	0,037
-557,715	-200,000	0,018	-0,093
-556,700	-200,000	-0,009	-0,082
-555,685	360,082	0,088	-0,131
-554,671	-200,000	-0,016	-0,133
-553,656	800,000	-0,005	0,012
-552,642	12,465	-0,134	0,076
-551,627	2,357	0,080	0,043
-550,612	-0,684	-0,068	0,036
-549,598	519,550	-0,016	-0,028
-548,583	-200,000	0,002	0,044
-547,569	-67,246	-0,083	0,024
-546,554	-200,000	-0,012	-0,119
-545,539	-20,890	0,073	-0,033
-544,525	66,710	-0,045	0,034
-543,510	36,368	-0,079	-0,052
-542,496	-75,745	0,016	0,004
-541,481	-200,000	-0,001	0,053
-540,466	291,810	-0,036	-0,048
-539,452	-200,000	0,030	0,137
-538,437	421,981	0,094	0,149
-537,423	308,840	-0,085	0,117
-536,408	506,651	-0,030	0,052
-535,393	-107,356	0,057	-0,009
-534,379	-200,000	-0,021	-0,117
-533,364	49,017	-0,112	0,078
-532,350	45,987	0,030	-0,021
-531,335	-128,437	0,129	0,013
-530,321	-200,000	0,011	0,056
-529,306	-200,000	-0,014	-0,177
-528,291	-200,000	-0,031	-0,163
-527,277	-22,434	-0,101	-0,045
-526,262	403,657	0,060	-0,093
-525,248	-10,119	0,008	0,004
-524,233	155,973	0,072	0,074
-523,218	-200,000	-0,001	0,068
-522,204	-107,163	0,173	-0,028
-521,189	-135,342	0,094	0,008
-520,175	800,000	-0,032	-0,071
-519,160	341,060	-0,057	0,082
-518,145	-200,000	-0,000	0,094
-517,131	-163,318	0,130	-0,004
-516,116	-200,000	0,011	0,081
-515,102	-200,000	-0,015	-0,077
-514,087	-61,384	-0,054	0,017
-513,072	-139,325	-0,117	0,009
-512,058	800,000	-0,031	0,065
-511,043	-200,000	-0,002	-0,104
-510,029	-24,594	0,084	-0,037
-509,014	-200,000	-0,009	0,034
-507,999	-200,000	0,008	0,170
-506,985	505,615	-0,037	-0,063
-505,970	91,056	0,112	-0,092
-504,956	-101,235	-0,204	0,036
-503,941	-200,000	-0,024	-0,090
-502,926	372,453	0,092	0,138
-501,912	-200,000	0,026	0,124
-500,897	-200,000	0,004	0,145
-499,883	-200,000	-0,003	-0,022
-498,868	-200,000	0,009	-0,096
-497,853	24,792	-0,038	0,023
-496,839	-200,000	0,015	-0,060
-495,824	-27,857	0,032	-0,014
-494,810	-200,000	0,026	-0,090
-493,795	460,583	-0,019	0,031
-492,781	196,257	0,021	0,023
-491,766	196,349	0,032	0,036
-490,751	577,525	-0,073	-0,131
-489,737	-173,500	-0,048	0,001
-488,722	-29,135	0,160	0,067
-487,708	-200,000	0,002	-0,041
-486,693	71,747	0,032	0,025
-485,678	-120,586	0,112	-0,014
-484,664	-171,495	-0,043	0,001
-483,649	-51,209	-0,112	-0,038
-482,635	408,004	-0,073	-0,115
-481,620	-96,831	0,024	0,005
-480,605	-200,000	0,016	-0,078
-479,591	800,000	-0,031	0,066
-478,576	-149,589	0,075	-0,004
-477,562	-31,680	-0,009	0,004
-476,547	-200,000	0,041	-0,143
-475,532	251,517	-0,072	-0,091
-474,518	-200,000	-0,015	0,082
-473,503	-153,486	0,032	0,002
-472,489	321,282	0,060	0,085
-471,474	-175,207	-0,134	0,003
-470,459	120,028	-0,105	-0,096
-469,445	-161,861	0,105	0,004
-468,430	-89,025	-0,124	0,027
-467,416	-66,834	0,101	-0,029
-466,401	37,708	-0,049	-0,032
-465,386	-132,408	-0,070	0,007
-464,372	-28,917	0,057	0,024
-463,357	59,446	-0,146	-0,106
-462,343	-36,872	0,006	0,003
-461,328	222,537	0,035	-0,042
-460,313	370,566	-0,043	-0,065
-459,299	520,359	0,028	0,049
-458,284	329,147	-0,100	0,141
-457,270	67,071	-0,058	-0,044
-456,255	-41,055	-0,125	-0,047
-455,241	-90,305	0,072	-0,015
-454,226	-166,110	-0,100	0,003
-453,211	-51,278	0,093	0,032
-452,197	-200,000	-0,007	-0,120
-451,182	-83,024	0,025	-0,006
-450,168	800,000	0,022	-0,063
-449,153	3,745	0,062	0,033
-448,138	-200,000	-0,003	-0,018
-447,124	-64,609	0,035	0,010
-446,109	-10,671	-0,060	-0,029
-445,095	450,648	-0,049	-0,080
-444,080	-200,000	0,008	0,026
-443,065	-200,000	0,000	-0,043
-442,051	-64,512	0,123	0,036
-441,036	800,000	0,059	-0,159
-440,022	-28,498	-0,062	-0,026
-439,007	-84,758	0,179	-0,041
-437,992	-64,584	-0,045	-0,013
-436,978	59,717	0,126	0,091
-435,963	800,000	0,021	-0,066
-434,949	57,480	-0,074	0,053
-433,934	-125,069	-0,042	0,005
-432,919	245,106	0,008	-0,010
-431,905	165,775	-0,049	0,051
-430,890	-55,098	-0,095	-0,031
-429,876	800,000	0,058	0,152
-428,861	105,732	0,057	0,050
-427,846	185,133	-0,042	0,046
-426,832	800,000	0,035	-0,073
-425,817	259,364	-0,028	-0,036
-424,803	800,000	0,030	0,088
-423,788	229,155	0,027	-0,032
-422,773	-126,848	-0,093	0,010
-421,759	-76,376	-0,040	0,010
-420,744	-112,482	-0,141	0,020
-419,730	202,433	-0,096	-0,109
-418,715	133,318	-0,029	-0,028
-417,701	-150,193	-0,041	0,002
-416,686	458,262	-0,024	-0,039
-415,671	-200,000	-0,023	0,120
-414,657	800,000	0,018	-0,041
-413,642	-1,720	0,018	-0,009
-412,628	-200,000	0,009	0,042
-411,613	-81,828	-0,147	-0,035
-410,598	-67,878	-0,072	-0,021
-409,584	76,400	0,087	0,068
-408,569	800,000	-0,039	-0,086
-407,555	-24,122	0,118	0,052
-406,540	662,037	-0,046	-0,088
-405,525	480,190	-0,041	-0,069
-404,511	169,389	-0,070	0,074
-403,496	-58,094	0,076	-0,024
-402,482	215,337	0,054	0,063
-401,467	800,000	-0,044	0,108
-400,452	512,192	-0,033	-0,056
-399,438	168,262	-0,008	0,008
-398,423	279,506	-0,073	0,096
-397,409	-128,600	-0,029	0,003
-396,394	-167,084	0,091	0,003
-395,379	160,149	0,062	0,064
-394,365	-73,575	0,069	-0,018
-393,350	-200,000	-0,020	-0,117
-392,336	-200,000	0,033	-0,155
-391,321	271,982	-0,029	0,037
-390,306	-200,000	-0,006	0,101
-389,292	633,387	0,027	-0,050
-388,277	53,423	0,093	0,065
-387,263	528,733	0,052	-0,091
-386,248	-200,000	-0,025	0,095
-385,233	-200,000	0,014	0,113
-384,219	76,273	0,015	-0,012
-383,204	145,365	-0,035	-0,034
-382,190	287,072	-0,056	-0,075
-381,175	-20,661	0,031	0,014
-380,160	800,000	-0,052	0,154
-379,146	80,173	0,137	0,108
-378,131	-82,051	-0,039	-0,009
-377,117	-200,000	-0,003	0,117
-376,102	84,877	-0,065	-0,052
-375,088	-200,000	0,002	-0,019
-374,073	800,000	-0,049	-0,120
-373,058	-19,672	0,022	-0,010
-372,044	10,413	0,202	-0,112
-371,029	129,459	0,077	-0,072
-370,015	-200,000	0,007	0,065
-369,000	-49,616	-0,056	0,020
-367,985	-44,623	-0,070	-0,025
-366,971	-26,871	-0,042	0,018
-365,956	423,584	-0,009	0,013
-364,942	37,869	0,050	0,033
-363,927	-200,000	0,021	0,113
-362,912	-52,927	0,029	0,010
-361,898	-200,000	0,015	0,052
-360,883	53,621	0,066	-0,046
-359,869	800,000	0,016	0,044
-358,854	-38,910	0,120	0,046
-357,839	-13,488	0,140	0,066
-356,825	-200,000	-0,034	0,178
-355,810	-200,000	-0,013	0,146
-354,796	-200,000	0,020	0,067
-353,781	65,542	-0,058	0,043
-352,766	164,058	0,059	-0,061
-351,752	-200,000	0,010	0,122
-350,737	319,938	0,053	0,074
-349,723	-129,520	0,073	-0,007
-348,708	5,840	-0,069	-0,038
-347,693	13,691	-0,063	0,036
-346,679	-71,189	-0,065	-0,018
-345,664	273,356	-0,115	-0,149
-344,650	108,576	0,100	-0,087
-343,635	-33,149	0,144	-0,058
-342,620	800,000	0,017	0,035
-341,606	756,324	-0,030	-0,059
-340,591	514,314	-0,052	-0,089
-339,577	-200,000	0,002	0,037
-338,562	800,000	0,031	-0,074
-337,548	405,327	0,058	-0,090
-336,533	-200,000	-0,008	0,077
-335,518	238,458	-0,029	-0,036
-334,504	124,186	-0,075	0,069
-333,489	-145,174	-0,021	0,001
-332,475	800,000	0,041	0,089
-331,460	-200,000	-0,032	-0,160
-330,445	800,000	0,013	-0,036
-329,431	-18,182	0,089	-0,041
-328,416	363,207	0,024	-0,036
-327,402	-60,381	0,088	0,027
-326,387	-120,939	-0,056	-0,007
-325,372	-36,300	-0,138	0,054
-324,358	-200,000	-0,024	-0,125
-323,343	-128,035	0,139	0,014
-322,329	-200,000	-0,003	0,103
-321,314	127,144	0,143	0,133
-320,299	734,965	-0,082	0,162
-319,285	-200,000	-0,013	-0,044
-318,270	-176,816	0,045	0,001
-317,256	109,617	0,055	0,049
-316,241	-200,000	0,039	0,137
-315,226	41,674	0,113	-0,075
-314,212	-200,000	0,032	0,147
-313,197	139,731	0,088	0,085
-312,183	84,279	0,081	0,065
-311,168	-168,550	0,044	-0,001
-310,153	-60,278	-0,040	0,012
-309,139	-189,084	0,168	-0,001
-308,124	128,475	0,098	0,092
-307,110	-200,000	-0,009	0,052
-306,095	329,329	-0,082	0,116
-305,080	800,000	-0,037	0,112
-304,066	38,038	-0,114	-0,074
-303,051	-200,000	0,003	-0,022
-302,037	-200,000	-0,013	0,111
-301,022	-200,000	-0,005	0,027
-300,008	29,657	0,009	-0,006
-298,993	-45,319	-0,033	0,012
-297,978	57,248	-0,089	-0,064
-296,964	-52,403	-0,077	0,026
-295,949	218,230	-0,067	0,078
-294,935	210,386	0,047	0,054
-293,920	-102,373	-0,097	0,017
-292,905	800,000	0,004	0,011
-291,891	-66,458	-0,018	0,005
-290,876	159,763	-0,072	-0,074
-289,862	11,940	0,043	0,024
-288,847	-144,660	-0,134	-0,009
-287,832	432,687	0,068	-0,108
-286,818	-200,000	0,027	-0,200
-285,803	524,743	0,067	-0,115
-284,789	-7,265	-0,053	-0,026
-283,774	-85,741	0,036	0,008
-282,759	-137,366	0,129	0,011
-281,745	800,000	0,037	-0,106
-280,730	162,271	-0,030	0,030
-279,716	800,000	0,059	-0,128
-278,701	294,059	-0,091	0,121
-277,686	114,129	0,037	-0,033
-276,672	-200,000	-0,009	-0,087
-275,657	-42,978	-0,098	-0,036
-274,643	-200,000	-0,029	-0,135
-273,628	-200,000	-0,017	-0,120
-272,613	-200,000	0,005	-0,068
-271,599	291,210	0,013	0,018
-270,584	800,000	0,044	0,105
-269,570	-200,000	0,023	0,097
-268,555	-154,641	0,129	-0,006
-267,540	10,510	0,048	-0,026
-266,526	1,051	0,134	0,070
-265,511	275,355	0,055	0,071
-264,497	244,629	0,022	0,028
-263,482	146,828	0,055	0,054
-262,467	800,000	-0,040	0,103
-261,453	699,064	-0,059	0,113
-260,438	-22,223	-0,112	-0,050
-259,424	-200,000	0,006	-0,098
-258,409	-92,588	-0,114	0,023
-257,395	-46,068	-0,076	0,027
-256,380	-90,989	0,090	-0,019
-255,365	303,983	0,091	0,124
-254,351	31,640	0,118	-0,074
-253,336	111,558	-0,130	0,115
-252,322	-32,863	0,019	-0,008
-251,307	85,169	0,105	-0,084
-250,292	537,829	-0,039	0,067
-249,278	63,424	0,144	0,105
-248,263	-37,979	-0,128	0,049
-247,249	-81,642	-0,042	0,010
-246,234	-200,000	-0,024	-0,206
-245,219	-200,000	0,028	-0,118
-244,205	399,150	-0,057	0,088
-243,190	-200,000	-0,002	-0,091
-242,176	-155,504	0,078	-0,004
-241,161	-200,000	0,025	-0,086
-240,146	460,612	-0,019	-0,031
-239,132	-200,000	0,038	0,150
-238,117	-43,050	-0,110	-0,041
-237,103	800,000	-0,006	0,014
-236,088	378,655	0,047	-0,070
-235,073	190,843	0,065	0,071
-234,059	800,000	0,035	0,104
-233,044	800,000	0,068	0,144
-232,030	-200,000	0,026	0,087
-231,015	680,368	-0,047	-0,090
-230,000	778,437	-0,020	-0,040
-228,986	206,035	-0,085	-0,097
-227,971	-200,000	-0,000	-0,107
-226,957	65,345	-0,053	0,039
-225,942	-200,000	0,003	0,041
-224,927	75,536	-0,102	0,079
-223,913	99,251	0,029	-0,024
-222,898	-200,000	0,002	-0,017
-221,884	-200,000	0,014	-0,049
-220,869	402,837	0,017	0,026
-219,855	159,297	-0,104	0,105
-218,840	44,339	0,121	0,081
-217,825	-200,000	-0,048	-0,157
-216,811	137,342	-0,027	-0,026
-215,796	800,000	-0,030	-0,079
-214,782	800,000	-0,046	0,093
-213,767	-107,495	-0,113	0,018
-212,752	237,992	0,121	0,147
-211,738	800,000	-0,054	-0,138
-210,723	111,107	-0,061	0,054
-209,709	-16,460	0,076	-0,035
-208,694	800,000	0,015	0,036
-207,679	-200,000	-0,001	-0,018
-206,665	60,527	0,034	-0,025
-205,650	174,168	-0,045	-0,048
-204,636	-44,661	0,040	-0,015
-203,621	10,386	0,030	0,017
-202,606	-28,259	-0,122	-0,051
-201,592	-200,000	-0,029	-0,149
-200,577	127,882	0,057	-0,053
-199,563	-20,444	-0,037	-0,017
-198,548	120,421	-0,064	-0,058
-197,533	84,733	0,052	0,041
-196,519	30,252	0,071	0,044
-195,504	22,716	-0,070	0,042
-194,490	15,534	0,132	-0,075
-193,475	-200,000	-0,004	-0,081
-192,460	-81,423	0,140	0,033
-191,446	-200,000	-0,050	0,169
-190,431	-200,000	-0,002	0,050
-189,417	16,067	-0,094	0,054
-188,402	682,703	0,074	0,141
-187,387	62,810	0,074	0,054
-186,373	800,000	-0,022	-0,048
-185,358	14,367	-0,170	0,096
-184,344	-101,571	0,058	0,010
-183,329	-200,000	0,008	0,119
-182,315	-96,662	0,069	0,013
-181,300	19,133	-0,115	0,067
-180,285	370,694	-0,110	-0,162
-179,271	-109,020	-0,148	0,023
-178,256	-40,062	0,010	-0,004
-177,242	-151,217	-0,043	-0,002
-176,227	-200,000	0,011	-0,073
-175,212	-200,000	0,006	-0,107
-174,198	-200,000	-0,012	-0,057
-173,183	-17,965	-0,173	-0,079
-172,169	-67,444	-0,081	-0,023
-171,154	150,381	-0,079	-0,078
-170,139	-200,000	0,009	-0,083
-169,125	-200,000	0,017	0,167
-168,110	775,083	-0,056	0,111
-167,096	-200,000	-0,006	-0,072
-166,081	-200,000	0,014	0,115
-165,066	164,732	-0,042	-0,043
-164,052	-200,000	-0,000	0,058
-163,037	222,185	-0,097	0,114
-162,023	-200,000	-0,012	-0,093
-161,008	264,026	0,067	-0,086
-159,993	-200,000	-0,010	0,049
-158,979	194,714	-0,033	-0,037
-157,964	800,000	0,029	-0,074
-156,950	-200,000	-0,004	-0,020
-155,935	-130,690	-0,116	0,011
-154,920	521,032	0,053	0,090
-153,906	110,521	0,087	0,076
-152,891	-145,966	0,103	-0,007
-151,877	789,756	-0,053	0,107
-150,862	289,331	-0,089	0,118
-149,847	800,000	0,042	-0,102
-148,833	-200,000	-0,013	0,128
-147,818	140,945	0,056	0,054
-146,804	624,166	-0,025	0,046
-145,789	-20,908	0,087	-0,038
-144,775	162,171	-0,146	0,149
-143,760	-153,249	-0,181	0,009
-142,745	363,680	-0,074	-0,108
-141,731	-80,442	-0,029	-0,007
-140,716	800,000	0,080	0,188
-139,702	-46,011	0,132	0,047
-138,687	-200,000	-0,006	-0,114
-137,672	-200,000	-0,012	-0,063
-136,658	-80,301	-0,068	0,016
-135,643	-142,696	-0,095	0,007
-134,629	-200,000	-0,028	-0,101
-133,614	7,554	0,086	-0,046
-132,599	-43,899	-0,070	-0,026
-131,585	-14,558	-0,092	-0,043
-130,570	245,775	0,085	-0,105
-129,556	-200,000	-0,000	0,049
-128,541	565,654	0,038	0,067
-127,526	-200,000	0,003	0,012
-126,512	273,375	-0,027	-0,035
-125,497	-200,000	-0,026	-0,093
-124,483	-200,000	-0,007	-0,155
-123,468	-200,000	-0,019	-0,065
-122,453	208,341	0,053	0,060
-121,439	469,752	-0,098	-0,161
-120,424	-200,000	0,003	0,066
