DTS Sentinel unit serial number:	SN410029Multiplexer serial number:	ORYXHardware model number:	OX2-SRSoftware version number:	ORYX F/W v4,00 Oryx Data Collector v3.7.2.0data status	okinstallation	B6 Nyhavnadifferential loss correction	single-endedforward channel	channel 2reverse channel	N/Adate	2023/12/10time	23:15:08forward acquisition time	300,00reverse acquisition time	0,00gamma	499,1914k internal	0,3122k external	0,3122temperature offset calibration	1,0000default loss term (dB/km)	0,3820temperature slope calibration	1,0000multiplexer offset coefficient	1,0000multiplexer slope coefficient	1,0000fibre end	0,00T internal ref (°C)	22,39T ext. ref 1 (°C)	6,09T ext. ref 2 (°C)	6,10length (m)	temperature (°C)	Stokes	anti-Stokes-744,400	-200,000	-0,044	-0,149
-743,385	59,033	-0,153	0,112
-742,371	-200,000	0,042	-0,230
-741,356	-27,458	-0,218	0,094
-740,342	306,189	0,052	0,073
-739,327	109,811	-0,156	0,139
-738,312	-200,000	0,001	0,017
-737,298	-121,031	-0,113	0,014
-736,283	-200,000	-0,008	-0,032
-735,269	-65,966	-0,250	0,074
-734,254	800,000	0,026	-0,078
-733,239	52,224	-0,418	-0,297
-732,225	199,868	-0,020	0,023
-731,210	-49,863	0,158	0,055
-730,196	1,042	0,085	0,045
-729,181	244,455	-0,037	-0,046
-728,167	-148,083	-0,066	-0,004
-727,152	14,401	-0,086	-0,050
-726,137	303,370	-0,100	-0,139
-725,123	-200,000	-0,037	-0,154
-724,108	-96,879	-0,089	-0,017
-723,094	800,000	-0,051	-0,143
-722,079	-31,847	-0,133	-0,055
-721,064	800,000	-0,037	0,090
-720,050	-99,212	-0,108	0,020
-719,035	-200,000	0,002	0,125
-718,021	261,414	0,096	-0,124
-717,006	-117,405	-0,114	-0,015
-715,991	3,705	-0,154	-0,083
-714,977	161,395	0,030	-0,032
-713,962	-22,827	-0,029	-0,013
-712,948	-200,000	0,004	-0,075
-711,933	3,946	0,161	0,088
-710,918	28,833	-0,083	-0,052
-709,904	-200,000	-0,007	-0,093
-708,889	10,859	-0,067	-0,038
-707,875	-146,088	-0,072	-0,005
-706,860	203,622	-0,049	-0,057
-705,845	-200,000	-0,008	0,086
-704,831	-7,365	-0,011	-0,006
-703,816	-200,000	0,032	-0,116
-702,802	-119,149	-0,040	-0,005
-701,787	212,058	-0,045	-0,052
-700,772	-200,000	-0,006	-0,114
-699,758	-57,446	-0,133	-0,043
-698,743	-62,878	0,067	-0,021
-697,729	230,673	-0,084	0,103
-696,714	62,290	0,046	0,034
-695,699	28,052	-0,103	-0,064
-694,685	-38,819	0,089	-0,035
-693,670	-129,667	-0,193	-0,020
-692,656	-72,075	0,064	0,017
-691,641	800,000	-0,023	-0,070
-690,627	800,000	0,023	0,076
-689,612	-147,178	0,059	-0,004
-688,597	-36,852	0,106	0,042
-687,583	-25,912	-0,082	-0,036
-686,568	-200,000	-0,006	-0,115
-685,554	330,530	0,008	0,012
-684,539	800,000	0,011	-0,034
-683,524	28,340	0,038	0,024
-682,510	-200,000	-0,012	0,076
-681,495	-184,511	-0,140	-0,002
-680,481	213,564	0,073	-0,086
-679,466	50,095	-0,114	-0,080
-678,451	56,015	-0,122	0,088
-677,437	148,544	0,062	0,062
-676,422	-200,000	-0,000	0,028
-675,408	-107,008	0,070	0,011
-674,393	649,482	-0,038	0,073
-673,378	224,947	-0,111	0,134
-672,364	381,293	0,086	0,131
-671,349	152,482	-0,048	-0,048
-670,335	800,000	-0,048	0,113
-669,320	167,625	0,097	0,103
-668,305	-200,000	-0,003	0,047
-667,291	-128,927	0,021	-0,002
-666,276	-5,047	-0,079	-0,040
-665,262	138,436	-0,054	-0,052
-664,247	124,352	0,104	-0,098
-663,232	-8,807	-0,074	-0,037
-662,218	-200,000	0,002	-0,134
-661,203	-200,000	0,026	-0,091
-660,189	100,892	-0,082	0,071
-659,174	107,791	0,088	-0,078
-658,159	-200,000	0,021	0,105
-657,145	-126,953	-0,093	0,010
-656,130	92,785	-0,037	0,031
-655,116	65,974	-0,100	-0,075
-654,101	-82,196	-0,145	-0,035
-653,086	-162,382	-0,127	0,005
-652,072	504,536	-0,023	-0,040
-651,057	-200,000	-0,021	-0,135
-650,043	-200,000	0,051	-0,231
-649,028	52,021	-0,130	-0,092
-648,014	800,000	-0,005	0,013
-646,999	695,508	-0,058	-0,114
-645,984	-23,968	0,126	-0,056
-644,970	89,710	-0,149	-0,124
-643,955	572,342	-0,115	-0,208
-642,941	178,914	0,074	-0,080
-641,926	-22,433	-0,126	0,057
-640,911	-200,000	0,006	0,098
-639,897	-76,679	-0,083	0,021
-638,882	244,164	-0,065	-0,081
-637,868	299,795	-0,078	0,108
-636,853	-64,291	0,175	0,053
-635,838	-144,557	-0,090	0,006
-634,824	-200,000	-0,002	0,021
-633,809	-200,000	-0,034	0,119
-632,795	-200,000	-0,003	0,052
-631,780	449,889	-0,080	0,131
-630,765	-200,000	0,021	0,097
-629,751	125,749	-0,147	0,138
-628,736	-200,000	-0,010	-0,052
-627,722	-37,626	-0,155	0,061
-626,707	119,998	-0,014	0,013
-625,692	-200,000	0,004	0,055
-624,678	-200,000	0,027	0,159
-623,663	506,356	0,048	0,083
-622,649	539,550	0,009	-0,016
-621,634	-200,000	0,020	-0,129
-620,619	197,747	-0,070	-0,080
-619,605	77,666	-0,040	-0,032
-618,590	-200,000	-0,019	0,085
-617,576	112,965	0,104	0,093
-616,561	-77,127	-0,116	0,030
-615,546	-63,012	0,054	0,016
-614,532	-200,000	0,013	-0,055
-613,517	298,953	-0,054	-0,073
-612,503	-200,000	0,009	-0,055
-611,488	23,140	-0,131	0,080
-610,474	10,283	0,075	0,042
-609,459	-111,440	0,044	0,007
-608,444	-106,471	0,052	-0,009
-607,430	81,198	0,103	-0,083
-606,415	800,000	-0,029	-0,065
-605,401	-58,090	0,061	-0,019
-604,386	-200,000	0,026	0,179
-603,371	123,953	-0,069	0,064
-602,357	-5,748	0,094	-0,048
-601,342	-95,436	0,033	-0,007
-600,328	-200,000	0,036	-0,144
-599,313	691,327	-0,060	0,117
-598,298	305,925	-0,109	0,150
-597,284	520,721	-0,060	-0,104
-596,269	157,906	0,038	0,039
-595,255	-200,000	-0,001	0,082
-594,240	21,436	-0,160	-0,096
-593,225	-81,316	0,125	-0,030
-592,211	-200,000	-0,015	-0,102
-591,196	-81,933	-0,135	-0,032
-590,182	-165,007	-0,008	-0,000
-589,167	569,491	0,053	-0,096
-588,152	450,590	0,012	-0,019
-587,138	269,528	-0,042	-0,055
-586,123	-200,000	-0,012	-0,199
-585,109	383,443	-0,074	-0,113
-584,094	-139,071	0,129	-0,010
-583,079	49,642	-0,044	0,031
-582,065	151,172	0,085	0,086
-581,050	365,172	-0,036	-0,054
-580,036	-108,558	-0,156	-0,025
-579,021	58,622	-0,200	-0,145
-578,006	800,000	-0,059	0,126
-576,992	800,000	-0,078	0,190
-575,977	-200,000	-0,027	0,165
-574,963	54,025	0,081	-0,058
-573,948	161,143	0,033	0,034
-572,934	-200,000	-0,011	-0,037
-571,919	163,534	-0,034	0,036
-570,904	800,000	-0,026	-0,053
-569,890	-200,000	-0,006	0,049
-568,875	-200,000	0,000	0,054
-567,861	-2,827	0,064	-0,033
-566,846	-152,357	0,040	-0,002
-565,831	-72,568	-0,094	0,026
-564,817	-38,586	0,063	0,025
-563,802	71,232	-0,064	-0,049
-562,788	-200,000	0,013	-0,185
-561,773	-12,266	0,044	0,021
-560,758	-42,259	-0,088	0,033
-559,744	-46,412	0,086	0,031
-558,729	657,298	-0,041	-0,078
-557,715	121,804	0,058	-0,054
-556,700	800,000	-0,054	-0,151
-555,685	-144,810	-0,036	-0,002
-554,671	800,000	0,025	0,070
-553,656	398,807	-0,081	0,126
-552,642	800,000	0,026	0,072
-551,627	-129,474	0,057	0,006
-550,612	53,091	-0,044	0,031
-549,598	175,757	-0,104	-0,112
-548,583	-18,768	0,077	0,035
-547,569	118,136	0,058	-0,053
-546,554	-200,000	-0,004	0,107
-545,539	443,203	-0,081	0,132
-544,525	8,318	0,015	-0,008
-543,510	563,599	-0,026	0,046
-542,496	-18,772	-0,143	0,065
-541,481	356,075	-0,096	0,142
-540,466	-200,000	-0,002	0,078
-539,452	71,865	0,080	0,061
-538,437	611,322	0,020	-0,037
-537,423	-200,000	0,006	0,029
-536,408	-200,000	0,025	0,128
-535,393	186,108	-0,024	0,026
-534,379	-200,000	-0,019	-0,136
-533,364	-200,000	0,033	-0,156
-532,350	800,000	0,025	-0,066
-531,335	-18,247	-0,027	0,012
-530,321	449,404	-0,054	-0,088
-529,306	-27,596	0,092	-0,040
-528,291	496,773	-0,101	-0,173
-527,277	722,969	-0,062	0,122
-526,262	-24,621	0,137	-0,060
-525,248	664,127	0,008	-0,015
-524,233	-200,000	-0,014	-0,121
-523,218	-200,000	-0,000	0,068
-522,204	159,109	-0,053	-0,055
-521,189	-200,000	-0,045	-0,249
-520,175	-9,608	-0,068	-0,034
-519,160	-19,913	-0,061	-0,028
-518,145	-200,000	-0,007	-0,130
-517,131	100,422	-0,084	-0,072
-516,116	408,223	0,067	0,105
-515,102	47,943	-0,027	0,018
-514,087	-83,139	-0,030	-0,007
-513,072	800,000	-0,015	0,037
-512,058	-200,000	-0,007	0,034
-511,043	341,889	0,037	-0,053
-510,029	42,499	0,114	0,076
-509,014	800,000	0,044	-0,100
-507,999	112,430	0,007	-0,006
-506,985	-89,640	0,057	0,012
-505,970	256,037	-0,054	-0,069
-504,956	23,539	-0,057	-0,035
-503,941	88,496	0,055	-0,045
-502,926	-200,000	0,023	0,100
-501,912	287,727	0,076	0,102
-500,897	-16,271	-0,041	0,019
-499,883	4,113	-0,084	-0,045
-498,868	108,789	0,055	0,049
-497,853	-200,000	0,021	-0,070
-496,839	38,433	-0,021	-0,014
-495,824	800,000	-0,051	0,122
-494,810	-200,000	0,007	0,092
-493,795	267,289	-0,033	-0,042
-492,781	-77,979	-0,061	-0,015
-491,766	-200,000	-0,012	-0,115
-490,751	800,000	0,005	0,010
-489,737	-140,229	0,063	-0,005
-488,722	-200,000	0,002	-0,093
-487,708	23,344	0,127	-0,077
-486,693	-101,047	0,044	0,008
-485,678	21,761	-0,062	0,037
-484,664	91,641	0,053	0,044
-483,649	164,185	-0,119	-0,124
-482,635	800,000	-0,018	0,058
-481,620	528,154	0,023	-0,040
-480,605	-63,403	0,089	0,027
-479,591	202,813	-0,034	0,039
-478,576	-19,416	0,128	-0,058
-477,562	18,597	-0,076	-0,045
-476,547	-144,122	0,022	0,001
-475,532	-200,000	0,001	-0,049
-474,518	-61,301	0,143	0,044
-473,503	-200,000	-0,013	0,060
-472,489	42,585	-0,048	0,032
-471,474	-92,185	-0,144	0,030
-470,459	-200,000	-0,008	0,053
-469,445	-200,000	-0,000	0,014
-468,430	55,750	-0,083	0,059
-467,416	-107,568	-0,053	0,008
-466,401	587,409	-0,073	0,133
-465,386	-16,181	0,037	-0,017
-464,372	800,000	-0,015	0,044
-463,357	156,435	-0,029	0,030
-462,343	-200,000	0,017	0,056
-461,328	-105,968	-0,099	-0,016
-460,313	319,969	0,013	-0,019
-459,299	-200,000	0,169	0,001
-458,284	-176,063	0,081	-0,002
-457,270	47,315	0,018	0,012
-456,255	-46,067	0,017	0,006
-455,241	-69,255	-0,119	-0,034
-454,226	-35,842	0,168	0,067
-453,211	-200,000	-0,005	-0,128
-452,197	52,907	0,055	0,039
-451,182	61,906	0,072	0,053
-450,168	18,720	0,157	-0,092
-449,153	-200,000	-0,004	-0,027
-448,138	488,229	0,059	-0,099
-447,124	800,000	-0,012	-0,033
-446,109	-49,583	0,112	0,039
-445,095	800,000	-0,014	-0,039
-444,080	-135,512	-0,136	0,012
-443,065	-128,627	-0,066	-0,007
-442,051	800,000	0,020	-0,051
-441,036	-58,837	-0,067	-0,021
-440,022	-200,000	-0,026	0,114
-439,007	-163,767	0,107	-0,004
-437,992	-9,710	0,095	-0,046
-436,978	-121,487	-0,075	0,009
-435,963	-200,000	-0,014	-0,134
-434,949	-141,937	-0,113	0,008
-433,934	569,919	0,078	0,141
-432,919	25,930	0,109	-0,067
-431,905	-98,695	0,034	0,006
-430,890	532,109	-0,063	0,110
-429,876	116,569	0,066	0,060
-428,861	800,000	0,033	0,096
-427,846	165,948	-0,110	-0,115
-426,832	-200,000	-0,003	-0,084
-425,817	-76,197	-0,034	-0,009
-424,803	800,000	-0,033	0,104
-423,788	414,723	-0,064	0,100
-422,773	124,047	0,105	0,097
-421,759	-76,194	-0,093	-0,024
-420,744	58,276	0,051	-0,037
-419,730	-45,451	-0,099	-0,036
-418,715	361,700	-0,051	-0,076
-417,701	74,825	0,069	-0,053
-416,686	-200,000	0,004	0,044
-415,671	54,299	0,063	-0,044
-414,657	-200,000	0,003	0,013
-413,642	-153,877	-0,017	0,001
-412,628	109,610	0,049	-0,043
-411,613	117,317	0,060	0,054
-410,598	-200,000	-0,006	-0,048
-409,584	96,744	-0,083	0,070
-408,569	-200,000	0,009	0,075
-407,555	302,227	0,064	0,087
-406,540	375,388	0,084	0,126
-405,525	24,991	-0,103	-0,063
-404,511	-36,368	-0,049	0,019
-403,496	184,844	0,028	-0,030
-402,482	90,271	0,104	0,086
-401,467	16,734	0,210	0,122
-400,452	-200,000	-0,016	0,081
-399,438	800,000	0,021	-0,052
-398,423	680,521	-0,025	0,048
-397,409	375,210	-0,068	-0,102
-396,394	-96,225	0,100	0,019
-395,379	373,907	0,047	-0,071
-394,365	-200,000	-0,006	-0,051
-393,350	177,437	0,051	0,054
-392,336	800,000	0,018	0,042
-391,321	-5,322	0,041	0,021
-390,306	327,558	-0,007	-0,009
-389,292	305,193	-0,103	-0,141
-388,277	800,000	0,034	0,077
-387,263	-200,000	0,019	0,067
-386,248	225,375	0,026	-0,031
-385,233	-89,665	0,020	-0,004
-384,219	-4,108	0,060	0,030
-383,204	800,000	-0,021	-0,052
-382,190	-129,394	-0,035	-0,004
-381,175	158,947	0,061	-0,062
-380,160	800,000	0,055	-0,127
-379,146	-83,318	-0,028	0,006
-378,131	-4,521	0,164	-0,083
-377,117	800,000	-0,022	-0,045
-376,102	64,745	-0,076	-0,056
-375,088	-179,506	-0,067	0,001
-374,073	800,000	-0,021	0,044
-373,058	-101,817	0,160	-0,028
-372,044	95,831	-0,077	0,065
-371,029	150,582	0,141	-0,140
-370,015	-200,000	-0,004	0,013
-369,000	-200,000	0,009	-0,133
-367,985	118,319	0,015	-0,014
-366,971	20,537	-0,045	0,027
-365,956	800,000	-0,083	0,177
-364,942	-200,000	0,000	0,092
-363,927	-200,000	-0,014	0,081
-362,912	264,682	-0,064	-0,082
-361,898	800,000	0,026	0,077
-360,883	-200,000	0,029	-0,103
-359,869	800,000	-0,043	-0,087
-358,854	800,000	0,065	0,137
-357,839	-60,298	0,067	0,021
-356,825	800,000	-0,049	0,124
-355,810	367,428	-0,036	-0,053
-354,796	-19,042	0,012	0,006
-353,781	-187,188	-0,183	0,002
-352,766	-200,000	-0,106	-0,000
-351,752	565,405	-0,037	0,067
-350,737	9,453	0,021	-0,011
-349,723	800,000	0,053	0,130
-348,708	-136,917	0,016	-0,001
-347,693	-200,000	0,006	0,089
-346,679	-200,000	-0,007	0,053
-345,664	104,975	-0,106	-0,092
-344,650	108,185	0,060	0,052
-343,635	-200,000	-0,014	0,048
-342,620	800,000	0,036	0,089
-341,606	160,261	0,071	0,073
-340,591	800,000	-0,011	-0,024
-339,577	-125,842	-0,033	0,004
-338,562	-101,489	0,049	0,009
-337,548	376,726	-0,030	0,046
-336,533	6,420	0,054	0,030
-335,518	-89,542	0,109	0,023
-334,504	-92,792	0,068	0,014
-333,489	-102,273	0,024	-0,004
-332,475	-112,356	-0,119	-0,017
-331,460	94,405	0,144	-0,120
-330,445	-120,008	-0,045	-0,006
-329,431	-141,308	0,067	0,005
-328,416	62,736	0,055	-0,040
-327,402	800,000	0,021	-0,058
-326,387	22,782	-0,014	-0,009
-325,372	-165,123	0,124	-0,004
-324,358	-200,000	-0,024	-0,135
-323,343	800,000	-0,026	-0,057
-322,329	-161,679	-0,071	-0,003
-321,314	-200,000	0,002	0,097
-320,299	95,570	0,060	0,050
-319,285	800,000	-0,044	0,096
-318,270	414,658	-0,029	0,045
-317,256	359,676	-0,060	0,089
-316,241	-100,663	-0,125	0,022
-315,226	-200,000	0,009	-0,110
-314,212	-22,869	0,057	0,025
-313,197	-75,002	0,072	0,019
-312,183	-200,000	-0,006	0,113
-311,168	-16,593	-0,041	-0,019
-310,153	338,020	-0,055	-0,079
-309,139	355,540	0,074	0,108
-308,124	233,211	-0,069	0,083
-307,110	-62,128	0,056	-0,017
-306,095	-200,000	-0,003	0,049
-305,080	295,173	-0,064	0,086
-304,066	188,855	0,064	-0,071
-303,051	147,151	-0,024	0,023
-302,037	-90,580	0,099	-0,021
-301,022	429,009	0,042	0,067
-300,008	114,323	0,080	-0,071
-298,993	-170,349	0,182	0,005
-297,978	-200,000	0,021	0,105
-296,964	18,119	-0,036	0,021
-295,949	-200,000	0,007	0,098
-294,935	108,259	-0,096	-0,084
-293,920	-200,000	0,005	0,019
-292,905	7,976	0,058	-0,032
-291,891	800,000	0,010	-0,028
-290,876	-129,041	-0,082	-0,008
-289,862	-105,196	-0,014	0,002
-288,847	-193,883	0,045	-0,000
-287,832	-200,000	0,004	-0,029
-286,818	143,936	0,071	0,069
-285,803	-200,000	-0,004	-0,060
-284,789	-15,144	0,058	-0,027
-283,774	-200,000	-0,000	0,022
-282,759	101,815	-0,065	-0,056
-281,745	-7,770	0,130	-0,064
-280,730	-30,277	0,050	-0,021
-279,716	800,000	0,028	-0,084
-278,701	66,053	0,033	0,024
-277,686	226,631	-0,078	-0,093
-276,672	800,000	0,036	0,105
-275,657	-113,009	-0,094	-0,014
-274,643	221,513	0,089	0,105
-273,628	-174,303	-0,095	-0,002
-272,613	255,942	0,034	-0,043
-271,599	800,000	0,040	-0,130
-270,584	65,206	0,036	-0,027
-269,570	-200,000	0,006	-0,186
-268,555	-200,000	0,017	-0,169
-267,540	45,219	-0,055	0,037
-266,526	-200,000	-0,033	-0,127
-265,511	-26,540	-0,130	-0,055
-264,497	96,698	0,053	-0,044
-263,482	-200,000	-0,027	0,210
-262,467	198,988	-0,110	0,123
-261,453	-200,000	0,029	0,130
-260,438	-127,293	-0,164	-0,017
-259,424	249,621	-0,071	-0,089
-258,409	-17,419	0,052	-0,024
-257,395	34,513	-0,042	0,027
-256,380	-81,388	0,111	-0,027
-255,365	-46,559	-0,084	0,030
-254,351	-200,000	0,004	0,036
-253,336	656,021	-0,017	0,032
-252,322	-200,000	-0,028	-0,091
-251,307	220,297	0,039	-0,045
-250,292	539,172	0,023	0,040
-249,278	-200,000	0,028	0,268
-248,263	-191,170	0,037	-0,000
-247,249	-200,000	0,022	-0,110
-246,234	800,000	0,028	0,082
-245,219	-158,660	-0,052	0,002
-244,205	24,299	0,116	-0,070
-243,190	-166,338	0,058	-0,002
-242,176	800,000	-0,075	-0,154
-241,161	60,115	-0,068	0,049
-240,146	239,797	0,099	0,120
-239,132	193,692	0,080	-0,088
-238,117	-144,802	-0,087	0,006
-237,103	-38,982	-0,088	-0,034
-236,088	446,650	0,023	-0,037
-235,073	-200,000	0,022	0,157
-234,059	-23,547	0,034	0,015
-233,044	44,915	-0,045	-0,030
-232,030	-200,000	-0,006	0,097
-231,015	27,915	0,177	0,109
-230,000	90,697	0,071	0,058
-228,986	-200,000	-0,003	-0,030
-227,971	190,515	-0,045	0,049
-226,957	800,000	0,029	0,077
-225,942	-56,829	-0,099	0,032
-224,927	64,303	-0,106	-0,078
-223,913	-88,660	0,028	0,006
-222,898	563,222	-0,039	-0,069
-221,884	29,453	0,037	0,023
-220,869	-64,352	0,084	-0,025
-219,855	800,000	-0,015	-0,043
-218,840	114,680	0,070	0,062
-217,825	-44,583	0,035	-0,013
-216,811	22,908	-0,093	-0,055
-215,796	-200,000	0,007	0,068
-214,782	-50,226	-0,013	-0,004
-213,767	468,962	0,019	-0,032
-212,752	-200,000	0,006	0,038
-211,738	800,000	0,022	-0,060
-210,723	300,121	-0,033	-0,044
-209,709	-200,000	0,027	-0,098
-208,694	-165,384	-0,027	0,001
-207,679	108,376	-0,085	0,074
-206,665	-200,000	-0,004	-0,121
-205,650	-16,536	-0,025	-0,012
-204,636	344,198	0,053	-0,076
-203,621	-200,000	0,007	-0,072
-202,606	3,025	-0,055	-0,029
-201,592	23,943	-0,045	-0,027
-200,577	-200,000	-0,040	-0,154
-199,563	800,000	0,019	-0,057
-198,548	119,914	-0,061	0,055
-197,533	-111,572	0,128	0,019
-196,519	24,633	-0,117	0,071
-195,504	208,464	0,047	0,053
-194,490	74,536	0,087	-0,067
-193,475	-81,471	-0,017	0,004
-192,460	-136,911	0,064	-0,005
-191,446	143,715	0,068	-0,066
-190,431	-200,000	0,010	0,044
-189,417	-200,000	0,022	0,094
-188,402	-200,000	0,007	0,108
-187,387	-200,000	-0,043	0,139
-186,373	27,396	-0,138	-0,084
-185,358	-200,000	-0,005	0,074
-184,344	800,000	0,015	0,046
-183,329	-82,773	0,082	-0,019
-182,315	310,532	0,034	-0,046
-181,300	-88,112	-0,023	0,005
-180,285	-200,000	-0,016	-0,087
-179,271	-25,846	0,125	-0,054
-178,256	366,234	0,058	0,085
-177,242	384,963	0,042	0,064
-176,227	115,093	0,034	-0,030
-175,212	92,786	0,027	-0,023
-174,198	-200,000	0,001	0,041
-173,183	-200,000	0,031	-0,155
-172,169	-12,274	-0,049	0,023
-171,154	-200,000	-0,014	-0,121
-170,139	-33,758	0,047	0,019
-169,125	247,601	0,147	0,181
-168,110	-40,988	0,011	-0,004
-167,096	-61,227	-0,076	0,023
-166,081	-141,977	-0,073	-0,005
-165,066	-200,000	-0,005	-0,180
-164,052	-119,288	0,085	0,011
-163,037	-29,865	0,060	-0,025
-162,023	800,000	-0,034	-0,104
-161,008	-8,078	0,115	0,056
-159,993	-116,940	0,065	-0,009
-158,979	156,303	-0,035	-0,035
-157,964	-47,682	-0,062	-0,022
-156,950	-200,000	0,005	-0,047
-155,935	-69,655	-0,108	0,030
-154,920	-200,000	0,011	-0,104
-153,906	232,524	0,038	-0,045
-152,891	-41,722	-0,071	0,026
-151,877	-53,168	-0,098	0,032
-150,862	37,639	-0,048	-0,031
-149,847	-41,771	0,018	-0,007
-148,833	-197,865	0,064	0,000
-147,818	-200,000	-0,007	0,203
-146,804	-200,000	-0,003	0,050
-145,789	146,059	-0,144	-0,141
-144,775	-200,000	0,039	-0,135
-143,760	-76,528	-0,172	-0,044
-142,745	-200,000	-0,005	-0,034
-141,731	-200,000	0,001	0,118
-140,716	-200,000	-0,003	-0,069
-139,702	800,000	0,027	0,068
-138,687	281,849	-0,040	-0,052
-137,672	800,000	0,021	-0,050
-136,658	119,718	-0,030	0,027
-135,643	-72,073	0,082	-0,022
-134,629	-108,195	-0,054	-0,008
-133,614	-200,000	-0,003	0,022
-132,599	34,611	0,123	0,078
-131,585	406,822	-0,087	0,135
-130,570	197,820	0,058	0,065
-129,556	-101,540	-0,092	0,016
-128,541	89,683	-0,040	0,032
-127,526	-170,916	-0,083	0,002
-126,512	150,636	-0,040	0,040
-125,497	101,544	0,070	0,059
-124,483	334,609	-0,038	0,054
-123,468	-28,222	-0,057	-0,024
-122,453	123,504	-0,142	-0,130
-121,439	301,795	0,089	0,119
-120,424	-114,281	0,098	-0,014
