DTS Sentinel unit serial number:	SN410029Multiplexer serial number:	ORYXHardware model number:	OX2-SRSoftware version number:	ORYX F/W v4,00 Oryx Data Collector v3.7.2.0data status	okinstallation	B6 Nyhavnadifferential loss correction	single-endedforward channel	channel 2reverse channel	N/Adate	2023/12/09time	10:20:08forward acquisition time	300,00reverse acquisition time	0,00gamma	499,1914k internal	0,3139k external	0,3139temperature offset calibration	1,0000default loss term (dB/km)	0,3820temperature slope calibration	1,0000multiplexer offset coefficient	1,0000multiplexer slope coefficient	1,0000fibre end	0,00T internal ref (°C)	18,55T ext. ref 1 (°C)	2,23T ext. ref 2 (°C)	2,23length (m)	temperature (°C)	Stokes	anti-Stokes-744,400	14,397	0,064	-0,037
-743,385	-130,536	-0,222	0,022
-742,371	145,128	0,083	-0,083
-741,356	-26,664	-0,168	0,072
-740,342	-126,598	0,181	-0,020
-739,327	-109,848	-0,362	0,056
-738,312	462,510	0,069	0,114
-737,298	-179,005	-0,352	-0,006
-736,283	800,000	0,047	0,148
-735,269	90,731	-0,279	0,231
-734,254	-22,056	-0,048	0,022
-733,239	-88,608	-0,609	-0,133
-732,225	231,006	0,019	0,023
-731,210	-200,000	0,006	-0,079
-730,196	-41,580	-0,092	0,035
-729,181	-43,728	-0,106	-0,039
-728,167	-200,000	0,007	-0,025
-727,152	-200,000	-0,001	-0,019
-726,137	212,630	-0,074	-0,086
-725,123	800,000	-0,024	0,065
-724,108	83,613	-0,129	-0,104
-723,094	800,000	0,033	-0,100
-722,079	14,277	-0,088	-0,051
-721,064	800,000	0,020	-0,052
-720,050	-50,493	0,107	-0,037
-719,035	172,030	-0,031	0,033
-718,021	127,721	-0,028	0,027
-717,006	351,874	0,009	-0,013
-715,991	-166,992	-0,049	-0,001
-714,977	-200,000	0,000	-0,132
-713,962	756,925	0,007	0,015
-712,948	54,710	-0,043	0,031
-711,933	-138,482	0,060	-0,005
-710,918	118,761	-0,099	-0,090
-709,904	44,354	-0,131	-0,089
-708,889	800,000	0,003	-0,008
-707,875	33,560	-0,140	-0,090
-706,860	-200,000	0,006	0,203
-705,845	-120,335	-0,153	0,019
-704,831	-176,799	0,170	0,003
-703,816	108,113	0,027	0,024
-702,802	-200,000	0,012	0,046
-701,787	87,189	-0,075	-0,061
-700,772	-200,000	0,016	-0,078
-699,758	-200,000	0,037	-0,167
-698,743	-74,671	-0,024	-0,006
-697,729	275,473	0,062	-0,082
-696,714	800,000	-0,043	0,089
-695,699	-200,000	-0,022	0,097
-694,685	241,903	-0,092	-0,115
-693,670	26,464	-0,097	-0,060
-692,656	-124,119	0,005	-0,001
-691,641	-22,326	-0,113	0,051
-690,627	-50,667	0,053	0,018
-689,612	712,614	-0,050	0,098
-688,597	-200,000	0,006	0,031
-687,583	5,205	-0,012	0,007
-686,568	-98,796	-0,045	0,008
-685,554	102,968	-0,091	0,079
-684,539	506,912	0,046	0,079
-683,524	-200,000	-0,011	0,046
-682,510	95,688	0,046	-0,039
-681,495	4,609	-0,102	-0,055
-680,481	110,800	-0,058	-0,051
-679,466	-44,856	0,108	0,039
-678,451	-125,468	-0,148	-0,016
-677,437	-200,000	0,011	0,069
-676,422	61,075	-0,118	0,087
-675,408	-200,000	0,002	-0,114
-674,393	127,467	-0,092	-0,086
-673,378	800,000	-0,047	-0,134
-672,364	116,901	-0,134	-0,121
-671,349	627,579	-0,032	0,059
-670,335	-200,000	0,002	0,037
-669,320	299,476	-0,003	0,005
-668,305	-175,819	0,089	0,002
-667,291	-74,370	-0,066	-0,017
-666,276	-90,866	-0,102	-0,022
-665,262	800,000	-0,035	-0,080
-664,247	-47,669	0,081	0,029
-663,232	208,652	0,086	0,100
-662,218	27,440	0,129	-0,080
-661,203	-37,551	-0,046	-0,018
-660,189	-132,162	-0,077	0,007
-659,174	-200,000	-0,012	-0,092
-658,159	-200,000	0,028	-0,121
-657,145	654,800	-0,068	-0,129
-656,130	-106,008	0,061	-0,010
-655,116	-15,195	-0,129	0,061
-654,101	436,274	0,063	0,102
-653,086	60,704	-0,067	0,049
-652,072	800,000	-0,078	0,160
-651,057	77,625	-0,086	-0,068
-650,043	-109,819	-0,067	0,010
-649,028	-200,000	0,002	-0,021
-648,014	-200,000	0,019	0,091
-646,999	52,892	-0,039	0,028
-645,984	-65,407	0,056	0,017
-644,970	313,616	0,052	-0,073
-643,955	29,915	0,056	-0,035
-642,941	-156,881	0,137	-0,006
-641,926	-200,000	-0,012	-0,079
-640,911	800,000	0,046	0,096
-639,897	800,000	-0,059	0,166
-638,882	425,502	-0,047	-0,075
-637,868	0,174	0,058	-0,030
-636,853	776,256	0,029	-0,059
-635,838	19,239	-0,082	0,048
-634,824	-88,345	-0,245	-0,054
-633,809	193,711	0,070	0,079
-632,795	544,658	0,013	0,023
-631,780	-71,167	0,087	0,024
-630,765	-14,406	-0,094	0,044
-629,751	27,681	0,051	0,032
-628,736	800,000	0,065	-0,142
-627,722	750,399	0,026	0,052
-626,707	139,344	0,084	0,081
-625,692	800,000	0,021	0,044
-624,678	-142,048	0,129	0,009
-623,663	-72,911	-0,104	0,028
-622,649	-200,000	0,005	-0,051
-621,634	-170,358	-0,064	-0,002
-620,619	624,495	-0,038	0,071
-619,605	-200,000	-0,005	0,117
-618,590	21,343	-0,054	-0,032
-617,576	140,421	0,159	0,155
-616,561	-101,466	-0,068	0,012
-615,546	-4,419	0,202	0,103
-614,532	-200,000	-0,013	-0,134
-613,517	-200,000	-0,004	-0,150
-612,503	148,184	0,047	-0,047
-611,488	42,278	0,037	-0,025
-610,474	-59,029	-0,078	0,025
-609,459	146,541	-0,034	-0,034
-608,444	381,690	-0,035	-0,053
-607,430	-184,397	-0,129	-0,002
-606,415	-200,000	0,008	-0,029
-605,401	-44,588	0,174	0,064
-604,386	-200,000	0,016	-0,064
-603,371	-69,216	-0,178	-0,050
-602,357	330,582	-0,064	-0,091
-601,342	-142,915	-0,071	-0,005
-600,328	-200,000	0,019	-0,183
-599,313	-200,000	0,002	-0,058
-598,298	-65,975	-0,037	-0,011
-597,284	108,219	0,014	-0,013
-596,269	69,085	0,144	0,109
-595,255	57,185	-0,056	0,040
-594,240	26,256	0,096	-0,059
-593,225	310,134	-0,033	-0,046
-592,211	-55,301	-0,121	-0,040
-591,196	111,487	0,111	-0,099
-590,182	-60,665	0,151	0,047
-589,167	438,541	-0,064	0,104
-588,152	254,862	-0,071	-0,090
-587,138	-200,000	-0,019	0,080
-586,123	-200,000	-0,038	-0,139
-585,109	174,587	0,049	-0,053
-584,094	-87,049	0,093	-0,021
-583,079	-17,457	-0,014	-0,006
-582,065	-200,000	0,015	0,077
-581,050	-187,815	-0,058	-0,001
-580,036	-30,943	0,042	0,017
-579,021	-108,393	0,070	-0,011
-578,006	800,000	0,047	-0,117
-576,992	64,952	-0,031	-0,023
-575,977	-200,000	0,000	-0,028
-574,963	-143,414	0,092	0,006
-573,948	-12,946	0,066	0,032
-572,934	409,061	-0,086	-0,134
-571,919	22,514	-0,048	-0,029
-570,904	-200,000	0,045	-0,196
-569,890	18,730	-0,043	-0,025
-568,875	250,653	0,050	0,062
-567,861	-70,330	-0,076	0,021
-566,846	349,139	-0,090	-0,131
-565,831	-200,000	-0,000	0,072
-564,817	-118,104	-0,051	0,007
-563,802	457,596	0,030	-0,049
-562,788	-121,101	-0,019	0,002
-561,773	32,595	0,085	-0,054
-560,758	465,688	0,022	0,036
-559,744	-200,000	0,025	0,091
-558,729	-122,925	0,017	-0,002
-557,715	-158,335	-0,083	0,003
-556,700	163,687	-0,042	-0,044
-555,685	-200,000	0,027	-0,104
-554,671	91,036	-0,055	-0,045
-553,656	148,390	-0,064	-0,063
-552,642	474,632	0,028	0,047
-551,627	175,778	0,073	-0,078
-550,612	800,000	-0,012	0,032
-549,598	-10,693	-0,076	0,037
-548,583	-200,000	-0,001	0,019
-547,569	800,000	-0,013	0,027
-546,554	254,232	0,123	0,155
-545,539	409,116	0,065	0,102
-544,525	-200,000	0,000	-0,008
-543,510	-56,181	-0,140	0,046
-542,496	23,898	0,060	-0,037
-541,481	204,632	-0,112	0,128
-540,466	184,516	0,084	-0,091
-539,452	491,232	-0,040	-0,068
-538,437	-200,000	0,033	0,147
-537,423	-200,000	-0,026	-0,139
-536,408	57,738	0,070	-0,050
-535,393	576,933	-0,047	-0,084
-534,379	-63,984	-0,090	-0,027
-533,364	-59,048	-0,215	0,068
-532,350	233,685	0,075	0,091
-531,335	-200,000	0,022	0,103
-530,321	135,192	0,125	0,119
-529,306	116,195	-0,112	-0,101
-528,291	270,869	-0,043	0,056
-527,277	800,000	-0,050	-0,113
-526,262	731,025	0,032	-0,064
-525,248	-30,870	-0,066	0,027
-524,233	800,000	0,034	-0,104
-523,218	-3,880	-0,161	-0,082
-522,204	631,765	-0,092	0,172
-521,189	-190,716	-0,065	-0,000
-520,175	-200,000	0,019	-0,077
-519,160	-81,866	-0,126	-0,030
-518,145	41,402	0,082	-0,054
-517,131	167,065	-0,014	-0,015
-516,116	-12,256	0,090	-0,043
-515,102	251,752	0,149	-0,186
-514,087	-200,000	0,011	0,052
-513,072	800,000	-0,014	-0,036
-512,058	-18,885	-0,051	0,023
-511,043	-200,000	-0,002	0,011
-510,029	-24,998	0,126	0,055
-509,014	443,761	0,033	-0,053
-507,999	800,000	-0,039	-0,084
-506,985	117,937	-0,107	-0,097
-505,970	-159,091	-0,035	-0,001
-504,956	158,022	0,058	-0,059
-503,941	44,798	-0,038	-0,026
-502,926	-9,341	0,093	-0,046
-501,912	-200,000	0,010	-0,089
-500,897	181,644	-0,036	-0,039
-499,883	7,034	0,104	0,057
-498,868	-104,232	-0,104	-0,018
-497,853	156,967	0,093	-0,094
-496,839	-158,803	0,122	0,005
-495,824	61,622	0,018	0,013
-494,810	800,000	0,048	0,097
-493,795	-63,123	-0,040	0,012
-492,781	250,176	-0,111	0,138
-491,766	800,000	-0,040	-0,087
-490,751	29,610	-0,028	-0,018
-489,737	-132,220	-0,151	0,014
-488,722	211,649	-0,041	0,047
-487,708	152,550	0,081	0,081
-486,693	153,232	0,144	0,145
-485,678	486,064	-0,086	0,145
-484,664	570,555	-0,050	0,089
-483,649	-140,968	-0,110	0,008
-482,635	-112,447	0,013	-0,002
-481,620	-71,344	0,187	0,051
-480,605	85,018	-0,116	0,093
-479,591	67,741	-0,083	-0,062
-478,576	-121,702	-0,071	0,009
-477,562	-82,300	0,081	-0,019
-476,547	32,577	0,140	-0,089
-475,532	-91,996	-0,100	-0,021
-474,518	121,249	-0,087	0,080
-473,503	800,000	0,025	-0,078
-472,489	47,835	0,066	0,045
-471,474	8,360	0,137	-0,075
-470,459	-200,000	-0,008	-0,029
-469,445	-200,000	0,017	0,108
-468,430	-16,938	-0,110	0,051
-467,416	98,539	0,049	0,041
-466,401	-28,042	0,051	0,022
-465,386	-1,582	-0,014	0,007
-464,372	474,297	0,049	0,082
-463,357	58,055	-0,004	0,003
-462,343	328,479	0,015	0,021
-461,328	-46,553	-0,054	-0,019
-460,313	-82,083	0,127	0,030
-459,299	800,000	0,035	0,071
-458,284	-200,000	0,017	0,171
-457,270	800,000	-0,034	0,087
-456,255	-134,303	-0,152	0,014
-455,241	357,247	0,032	-0,047
-454,226	-44,630	-0,044	-0,016
-453,211	-200,000	-0,015	0,171
-452,197	739,412	0,067	0,132
-451,182	-74,160	0,060	-0,016
-450,168	72,691	0,071	-0,054
-449,153	800,000	-0,030	-0,076
-448,138	-24,188	-0,148	-0,064
-447,124	-200,000	0,006	-0,047
-446,109	-79,978	-0,047	0,012
-445,095	47,382	-0,099	-0,067
-444,080	26,577	0,096	-0,059
-443,065	5,283	0,104	0,056
-442,051	5,819	-0,110	0,060
-441,036	-94,381	-0,156	-0,031
-440,022	156,444	0,045	0,046
-439,007	800,000	0,051	0,116
-437,992	-90,264	-0,057	-0,012
-436,978	-200,000	-0,030	0,135
-435,963	800,000	0,040	-0,115
-434,949	5,259	-0,096	-0,052
-433,934	33,443	0,087	0,055
-432,919	67,821	0,070	-0,052
-431,905	82,825	-0,090	-0,072
-430,890	-200,000	0,012	-0,100
-429,876	-44,657	-0,112	0,041
-428,861	-200,000	-0,009	0,050
-427,846	74,356	0,089	-0,069
-426,832	800,000	-0,055	-0,116
-425,817	352,106	0,041	-0,059
-424,803	760,218	-0,033	0,067
-423,788	-200,000	0,027	0,109
-422,773	23,380	0,029	0,017
-421,759	-15,423	0,035	-0,016
-420,744	-22,431	0,098	0,043
-419,730	-200,000	0,018	0,081
-418,715	112,104	-0,098	0,087
-417,701	-200,000	0,046	-0,215
-416,686	-200,000	0,037	-0,195
-415,671	60,818	0,094	-0,068
-414,657	75,555	0,129	0,099
-413,642	800,000	-0,030	0,088
-412,628	-200,000	-0,028	-0,133
-411,613	70,133	-0,098	0,074
-410,598	-200,000	-0,041	-0,208
-409,584	29,047	0,107	-0,067
-408,569	-72,090	0,051	0,014
-407,555	800,000	0,035	0,098
-406,540	114,629	0,043	0,039
-405,525	800,000	-0,016	0,045
-404,511	256,099	0,059	-0,074
-403,496	-200,000	-0,058	-0,200
-402,482	472,944	-0,077	0,127
-401,467	-131,095	0,180	-0,017
-400,452	-73,053	0,027	0,007
-399,438	59,367	0,016	-0,012
-398,423	192,673	-0,091	0,100
-397,409	-96,555	0,134	-0,026
-396,394	220,772	-0,050	-0,059
-395,379	-73,354	-0,138	-0,037
-394,365	-101,749	0,110	0,019
-393,350	-124,700	0,084	0,009
-392,336	-128,802	0,022	-0,002
-391,321	147,937	0,098	0,097
-390,306	-79,093	-0,222	0,055
-389,292	-33,498	0,044	0,018
-388,277	-200,000	-0,018	0,060
-387,263	61,011	0,065	-0,047
-386,248	800,000	-0,047	-0,122
-385,233	-200,000	-0,009	0,047
-384,219	-108,360	-0,082	0,013
-383,204	-200,000	-0,006	-0,159
-382,190	-200,000	-0,006	-0,133
-381,175	-200,000	-0,034	-0,146
-380,160	-28,903	-0,108	-0,045
-379,146	-200,000	0,015	0,066
-378,131	-75,867	-0,088	0,023
-377,117	99,344	0,152	0,128
-376,102	269,604	-0,078	-0,100
-375,088	46,981	-0,039	-0,027
-374,073	-6,105	-0,136	-0,068
-373,058	-141,228	0,195	-0,014
-372,044	58,099	0,081	-0,058
-371,029	596,969	-0,047	-0,085
-370,015	-200,000	-0,002	0,025
-369,000	-36,258	0,069	-0,027
-367,985	-63,289	0,045	-0,014
-366,971	-37,544	-0,077	0,030
-365,956	800,000	0,042	0,106
-364,942	-200,000	0,036	-0,152
-363,927	40,244	0,118	0,077
-362,912	-11,233	0,030	0,015
-361,898	-117,893	0,061	-0,008
-360,883	-200,000	0,010	0,057
-359,869	280,186	-0,062	-0,082
-358,854	-37,427	0,030	0,011
-357,839	-121,040	0,199	-0,024
-356,825	140,757	-0,029	0,028
-355,810	124,014	0,095	-0,087
-354,796	-29,933	-0,093	-0,039
-353,781	800,000	0,049	-0,155
-352,766	-76,134	-0,045	0,011
-351,752	26,227	0,137	0,084
-350,737	-177,703	-0,116	-0,002
-349,723	18,782	-0,092	0,054
-348,708	-200,000	-0,002	0,047
-347,693	243,433	-0,039	-0,048
-346,679	139,580	-0,060	-0,058
-345,664	-141,082	-0,172	0,013
-344,650	-38,233	0,159	0,061
-343,635	425,883	0,059	0,092
-342,620	-65,171	-0,040	0,012
-341,606	35,488	0,095	0,061
-340,591	78,875	-0,043	0,033
-339,577	800,000	0,043	-0,120
-338,562	-123,901	-0,212	-0,024
-337,548	-40,282	-0,078	0,029
-336,533	-200,000	-0,018	0,121
-335,518	-70,445	0,094	-0,026
-334,504	321,861	0,055	-0,076
-333,489	-6,509	0,091	0,045
-332,475	-141,865	0,025	0,002
-331,460	-200,000	0,012	-0,064
-330,445	800,000	-0,053	-0,114
-329,431	-163,491	0,171	0,006
-328,416	370,975	0,041	0,060
-327,402	-45,255	0,094	0,034
-326,387	-144,500	-0,217	0,014
-325,372	-0,028	-0,079	0,041
-324,358	85,273	-0,130	0,104
-323,343	-200,000	-0,009	0,091
-322,329	-7,320	0,075	0,037
-321,314	-200,000	0,018	0,108
-320,299	-46,565	-0,088	-0,031
-319,285	-200,000	-0,041	0,196
-318,270	-46,723	-0,054	-0,019
-317,256	-200,000	-0,020	-0,110
-316,241	125,382	-0,076	-0,070
-315,226	154,081	-0,037	-0,037
-314,212	163,123	-0,066	0,068
-313,197	-200,000	-0,003	0,052
-312,183	-98,683	0,134	-0,025
-311,168	139,976	-0,070	-0,067
-310,153	448,385	-0,021	-0,034
-309,139	-55,443	0,083	-0,027
-308,124	-105,978	0,146	0,024
-307,110	-95,905	0,058	-0,011
-306,095	213,720	0,057	0,065
-305,080	285,891	0,055	0,072
-304,066	488,032	0,057	0,095
-303,051	-137,121	0,132	0,011
-302,037	-48,416	0,032	0,011
-301,022	55,446	0,066	0,046
-300,008	-113,915	-0,054	0,007
-298,993	175,641	0,046	0,048
-297,978	307,642	-0,123	0,167
-296,964	708,003	-0,019	0,037
-295,949	-43,755	-0,067	-0,024
-294,935	-1,837	-0,192	-0,098
-293,920	-200,000	0,035	-0,190
-292,905	-171,903	0,154	-0,004
-291,891	800,000	0,014	0,038
-290,876	-200,000	0,030	0,129
-289,862	233,817	-0,053	0,064
-288,847	215,587	0,081	-0,094
-287,832	-87,872	0,072	0,016
-286,818	-57,247	0,028	0,009
-285,803	-200,000	0,000	-0,028
-284,789	280,647	0,051	0,067
-283,774	101,734	0,126	0,107
-282,759	-200,000	-0,003	-0,178
-281,745	565,065	-0,049	-0,088
-280,730	-200,000	0,029	-0,096
-279,716	-75,203	0,129	0,033
-278,701	-173,314	-0,134	0,003
-277,686	-200,000	0,002	0,223
-276,672	355,199	0,117	0,169
-275,657	-200,000	0,026	0,102
-274,643	24,695	-0,114	0,068
-273,628	-200,000	-0,021	-0,135
-272,613	0,372	-0,049	-0,025
-271,599	98,728	0,057	0,048
-270,584	800,000	0,012	0,026
-269,570	283,716	0,034	0,045
-268,555	253,908	-0,060	-0,074
-267,540	-200,000	-0,010	0,133
-266,526	800,000	-0,036	0,114
-265,511	157,759	-0,091	0,092
-264,497	459,245	0,046	0,075
-263,482	-200,000	0,039	0,172
-262,467	143,493	-0,017	-0,016
-261,453	714,185	0,096	0,186
-260,438	-200,000	-0,003	0,022
-259,424	-200,000	0,003	-0,137
-258,409	-139,872	0,132	-0,010
-257,395	369,463	0,072	0,106
-256,380	114,531	-0,041	-0,036
-255,365	-106,465	-0,086	-0,014
-254,351	-8,999	-0,039	-0,019
-253,336	800,000	-0,013	0,031
-252,322	-116,623	-0,091	-0,012
-251,307	-20,163	0,055	-0,024
-250,292	800,000	0,046	-0,139
-249,278	-139,575	0,037	0,003
-248,263	34,757	0,057	-0,036
-247,249	262,659	-0,037	-0,046
-246,234	800,000	0,093	-0,239
-245,219	-200,000	0,026	-0,142
-244,205	-86,943	-0,197	-0,043
-243,190	-21,698	0,072	-0,032
-242,176	-55,734	-0,044	-0,014
-241,161	-200,000	-0,019	0,128
-240,146	800,000	0,024	0,078
-239,132	-48,660	-0,045	0,015
-238,117	800,000	-0,044	0,132
-237,103	-109,306	-0,160	0,024
-236,088	-61,949	-0,107	0,032
-235,073	800,000	-0,017	0,049
-234,059	800,000	-0,034	-0,077
-233,044	-200,000	-0,019	0,114
-232,030	144,914	-0,027	0,026
-231,015	-2,633	-0,080	-0,040
-230,000	-97,431	-0,159	0,030
-228,986	575,060	0,096	-0,172
-227,971	-200,000	-0,009	-0,115
-226,957	-52,845	0,118	-0,039
-225,942	-200,000	-0,019	0,081
-224,927	-80,812	-0,057	0,014
-223,913	-200,000	0,011	0,088
-222,898	-96,935	0,082	-0,015
-221,884	-200,000	0,001	0,020
-220,869	666,313	0,039	0,073
-219,855	-200,000	-0,017	-0,122
-218,840	-11,792	0,083	0,039
-217,825	-180,969	0,060	0,001
-216,811	-106,950	-0,084	0,013
-215,796	44,086	-0,099	0,066
-214,782	800,000	-0,045	0,105
-213,767	-177,118	0,116	-0,002
-212,752	129,133	0,072	0,067
-211,738	-167,452	-0,053	-0,002
-210,723	-3,774	0,053	0,026
-209,709	-80,601	-0,189	0,045
-208,694	-122,838	-0,106	-0,012
-207,679	-57,451	-0,105	0,033
-206,665	12,036	0,031	0,017
-205,650	-200,000	-0,007	0,074
-204,636	191,056	-0,063	0,069
-203,621	-101,243	-0,091	0,016
-202,606	62,836	-0,011	-0,008
-201,592	-116,489	0,160	-0,021
-200,577	-78,613	-0,143	-0,035
-199,563	-89,599	-0,036	0,008
-198,548	-200,000	-0,013	-0,082
-197,533	-67,923	-0,036	-0,010
-196,519	78,398	-0,069	-0,053
-195,504	-200,000	0,013	0,079
-194,490	-138,455	0,014	0,001
-193,475	726,886	-0,070	-0,136
-192,460	50,355	0,099	-0,068
-191,446	-200,000	0,008	0,059
-190,431	20,327	0,075	-0,044
-189,417	-200,000	0,016	-0,143
-188,402	-150,683	-0,094	0,005
-187,387	-200,000	-0,026	-0,087
-186,373	73,860	-0,034	-0,026
-185,358	-36,545	0,115	-0,045
-184,344	-57,803	0,155	0,049
-183,329	-85,868	-0,183	0,041
-182,315	-67,221	-0,034	-0,010
-181,300	186,016	0,064	0,069
-180,285	-200,000	-0,000	-0,030
-179,271	201,983	-0,093	0,104
-178,256	393,795	0,055	-0,083
-177,242	97,559	0,079	-0,066
-176,227	-200,000	0,012	0,143
-175,212	362,982	0,022	-0,032
-174,198	800,000	0,020	-0,050
-173,183	-123,320	-0,187	0,021
-172,169	145,220	0,093	0,090
-171,154	800,000	-0,027	-0,072
-170,139	-200,000	-0,010	0,097
-169,125	-49,577	-0,155	0,053
-168,110	78,702	0,036	0,028
-167,096	277,121	-0,060	-0,078
-166,081	800,000	0,027	-0,071
-165,066	-137,167	0,103	-0,008
-164,052	-80,436	0,084	-0,020
-163,037	-15,053	-0,096	-0,045
-162,023	-90,297	-0,087	-0,018
-161,008	-127,887	0,140	0,014
-159,993	287,961	0,085	0,111
-158,979	-78,491	-0,164	-0,041
-157,964	184,500	0,007	0,008
-156,950	800,000	-0,046	-0,101
-155,935	800,000	-0,025	-0,077
-154,920	136,202	0,052	-0,049
-153,906	-62,202	0,176	-0,053
-152,891	-200,000	-0,007	0,045
-151,877	-76,770	-0,110	-0,028
-150,862	-200,000	0,091	0,000
-149,847	274,427	0,031	0,040
-148,833	183,043	-0,046	0,049
-147,818	-200,000	0,013	0,078
-146,804	-200,000	-0,004	0,220
-145,789	-63,704	0,040	0,012
-144,775	248,365	0,076	-0,093
-143,760	6,055	-0,171	-0,092
-142,745	185,658	-0,066	0,071
-141,731	23,131	0,091	0,054
-140,716	-200,000	-0,012	0,145
-139,702	-200,000	-0,030	0,193
-138,687	800,000	0,051	0,125
-137,672	-200,000	-0,003	0,066
-136,658	47,857	-0,031	0,021
-135,643	27,271	0,078	-0,047
-134,629	-200,000	-0,020	-0,113
-133,614	800,000	-0,017	-0,047
-132,599	48,690	0,075	0,051
-131,585	-200,000	0,016	0,068
-130,570	-53,442	-0,140	-0,046
-129,556	-0,105	0,039	-0,020
-128,541	-200,000	-0,029	0,137
-127,526	-172,723	0,042	-0,001
-126,512	-200,000	-0,012	0,128
-125,497	800,000	0,067	0,158
-124,483	-200,000	-0,007	-0,027
-123,468	-114,672	-0,078	0,011
-122,453	-154,140	0,128	0,006
-121,439	-200,000	-0,001	-0,147
-120,424	-167,485	0,091	0,003
-119,410	323,202	0,034	-0,046
-118,395	171,294	0,079	0,082
