DTS Sentinel unit serial number:	SN410029Multiplexer serial number:	ORYXHardware model number:	OX2-SRSoftware version number:	ORYX F/W v4,00 Oryx Data Collector v3.7.2.0data status	okinstallation	B6 Nyhavnadifferential loss correction	single-endedforward channel	channel 2reverse channel	N/Adate	2023/12/11time	03:05:08forward acquisition time	300,00reverse acquisition time	0,00gamma	499,1914k internal	0,3123k external	0,3123temperature offset calibration	1,0000default loss term (dB/km)	0,3820temperature slope calibration	1,0000multiplexer offset coefficient	1,0000multiplexer slope coefficient	1,0000fibre end	0,00T internal ref (°C)	21,40T ext. ref 1 (°C)	4,19T ext. ref 2 (°C)	4,21length (m)	temperature (°C)	Stokes	anti-Stokes-744,400	-53,770	0,085	0,029
-743,385	-129,288	-0,211	-0,022
-742,371	800,000	-0,022	0,060
-741,356	179,260	-0,179	0,195
-740,342	-68,100	0,083	0,024
-739,327	-63,666	-0,350	0,106
-738,312	275,643	-0,019	-0,025
-737,298	-17,454	-0,218	-0,102
-736,283	-174,630	-0,029	-0,001
-735,269	23,801	-0,184	0,113
-734,254	800,000	0,037	-0,082
-733,239	-63,894	-0,387	-0,117
-732,225	-14,364	0,096	0,046
-731,210	37,874	-0,060	0,040
-730,196	63,454	0,086	0,064
-729,181	411,121	-0,058	-0,091
-728,167	-200,000	-0,008	-0,040
-727,152	465,948	0,096	-0,160
-726,137	-20,337	-0,114	-0,052
-725,123	-9,623	-0,132	-0,065
-724,108	800,000	0,003	-0,010
-723,094	635,966	-0,064	-0,122
-722,079	800,000	-0,044	-0,123
-721,064	73,814	-0,132	-0,103
-720,050	691,295	-0,060	0,117
-719,035	48,155	-0,067	-0,046
-718,021	137,414	-0,117	-0,114
-717,006	-153,662	-0,212	0,011
-715,991	315,273	-0,127	-0,178
-714,977	-161,127	-0,229	0,009
-713,962	-73,036	0,073	0,020
-712,948	104,272	0,022	-0,020
-711,933	34,969	0,030	-0,020
-710,918	-28,624	0,132	0,056
-709,904	-68,943	0,044	0,013
-708,889	-71,541	-0,101	-0,028
-707,875	36,181	-0,099	-0,065
-706,860	36,590	-0,089	0,058
-705,845	-83,754	0,125	0,029
-704,831	27,227	0,110	-0,068
-703,816	246,615	-0,078	-0,098
-702,802	800,000	-0,064	-0,176
-701,787	114,979	0,060	-0,055
-700,772	232,865	-0,093	-0,113
-699,758	452,676	0,018	-0,031
-698,743	8,799	-0,102	0,057
-697,729	-200,000	0,006	0,091
-696,714	800,000	0,003	-0,009
-695,699	-176,067	-0,104	-0,002
-694,685	-176,345	-0,091	0,002
-693,670	138,960	-0,062	-0,060
-692,656	-164,708	0,056	-0,002
-691,641	-200,000	-0,003	-0,032
-690,627	106,533	-0,114	0,100
-689,612	-200,000	0,004	-0,062
-688,597	-64,546	-0,074	0,022
-687,583	363,801	0,026	0,039
-686,568	-63,705	-0,048	-0,015
-685,554	16,722	-0,082	-0,048
-684,539	103,837	0,035	0,031
-683,524	-200,000	-0,032	0,132
-682,510	-200,000	-0,008	-0,028
-681,495	-200,000	-0,009	0,049
-680,481	79,365	0,056	-0,044
-679,466	-17,030	-0,091	-0,043
-678,451	-200,000	-0,031	0,105
-677,437	-113,086	0,078	0,011
-676,422	23,687	0,197	0,120
-675,408	155,331	-0,043	0,044
-674,393	800,000	-0,017	-0,047
-673,378	-200,000	-0,002	0,135
-672,364	18,262	-0,102	-0,061
-671,349	800,000	-0,006	0,017
-670,335	-4,437	0,134	0,069
-669,320	-200,000	-0,143	-0,000
-668,305	-200,000	-0,004	0,155
-667,291	-129,568	-0,159	-0,016
-666,276	-200,000	-0,005	0,136
-665,262	-0,957	-0,096	0,050
-664,247	70,913	-0,083	-0,064
-663,232	30,978	0,125	0,080
-662,218	746,866	-0,047	-0,094
-661,203	111,450	-0,096	0,086
-660,189	297,495	-0,138	-0,188
-659,174	324,886	0,056	-0,080
-658,159	-123,554	0,127	0,015
-657,145	-200,000	-0,010	-0,069
-656,130	-17,578	-0,067	0,031
-655,116	-200,000	0,001	-0,089
-654,101	-13,406	-0,088	-0,042
-653,086	76,259	-0,087	0,069
-652,072	-29,005	-0,106	-0,045
-651,057	39,059	-0,097	0,064
-650,043	-200,000	0,002	-0,041
-649,028	800,000	0,036	-0,103
-648,014	122,763	0,082	-0,076
-646,999	-200,000	-0,008	-0,107
-645,984	-200,000	0,001	0,077
-644,970	377,380	-0,042	0,064
-643,955	-200,000	0,004	0,088
-642,941	245,922	-0,090	-0,113
-641,926	-54,138	-0,020	-0,007
-640,911	277,557	0,077	0,102
-639,897	319,346	-0,020	-0,028
-638,882	-200,000	-0,000	0,067
-637,868	-60,359	-0,072	-0,022
-636,853	-200,000	-0,023	-0,087
-635,838	-104,140	-0,119	0,020
-634,824	-119,719	0,058	-0,007
-633,809	-9,364	0,040	-0,020
-632,795	-30,714	0,058	0,024
-631,780	-43,568	0,144	0,054
-630,765	-17,941	0,173	0,080
-629,751	-200,000	0,036	-0,123
-628,736	-113,107	-0,083	-0,012
-627,722	88,144	-0,101	0,083
-626,707	446,118	0,028	-0,046
-625,692	-101,234	0,071	-0,013
-624,678	-106,920	-0,079	0,013
-623,663	138,439	0,075	0,073
-622,649	-17,583	0,046	0,021
-621,634	-200,000	-0,027	0,109
-620,619	198,858	-0,078	-0,089
-619,605	235,814	-0,079	-0,096
-618,590	-136,421	0,048	0,004
-617,576	-200,000	0,002	0,091
-616,561	614,196	-0,029	-0,053
-615,546	800,000	-0,056	-0,156
-614,532	-200,000	-0,017	-0,179
-613,517	21,256	-0,031	-0,018
-612,503	323,888	-0,010	-0,014
-611,488	-35,086	0,148	-0,060
-610,474	-59,292	0,073	-0,023
-609,459	-77,491	0,034	0,009
-608,444	-200,000	-0,007	-0,033
-607,430	639,223	-0,044	-0,083
-606,415	-74,602	-0,080	-0,021
-605,401	-56,148	-0,135	-0,044
-604,386	681,469	-0,024	-0,047
-603,371	-54,506	0,052	-0,017
-602,357	-186,999	0,081	-0,001
-601,342	666,028	0,032	0,062
-600,328	-200,000	-0,005	0,023
-599,313	376,513	0,088	-0,133
-598,298	-200,000	-0,003	0,149
-597,284	47,152	0,088	-0,061
-596,269	-74,805	-0,052	0,014
-595,255	41,258	0,132	-0,088
-594,240	151,637	-0,037	-0,038
-593,225	-200,000	0,001	-0,083
-592,211	-200,000	0,041	-0,208
-591,196	800,000	0,047	-0,111
-590,182	-200,000	0,000	0,135
-589,167	12,602	-0,072	-0,041
-588,152	-200,000	0,012	0,041
-587,138	381,798	0,045	-0,068
-586,123	-200,000	0,018	-0,074
-585,109	78,347	-0,118	-0,093
-584,094	-8,711	0,068	-0,034
-583,079	-191,052	0,175	-0,001
-582,065	100,955	0,093	0,080
-581,050	-17,052	-0,114	0,053
-580,036	71,120	-0,078	-0,060
-579,021	389,464	-0,079	-0,122
-578,006	-200,000	-0,017	-0,105
-576,992	-200,000	0,005	-0,073
-575,977	-63,375	0,011	-0,003
-574,963	-60,370	0,171	0,053
-573,948	222,149	0,032	-0,038
-572,934	800,000	-0,014	0,035
-571,919	182,220	-0,085	-0,093
-570,904	242,993	0,073	-0,090
-569,890	-26,648	-0,074	0,032
-568,875	-200,000	0,009	0,065
-567,861	-33,894	-0,040	0,016
-566,846	800,000	-0,026	0,083
-565,831	-109,539	-0,113	-0,018
-564,817	-149,981	-0,085	0,005
-563,802	-200,000	-0,011	-0,112
-562,788	63,528	-0,063	-0,047
-561,773	-133,746	0,039	-0,004
-560,758	332,938	0,077	0,110
-559,744	-200,000	-0,006	-0,068
-558,729	-44,911	-0,079	-0,029
-557,715	57,119	-0,086	-0,062
-556,700	567,169	-0,035	-0,064
-555,685	-200,000	0,007	0,108
-554,671	-22,147	-0,014	0,006
-553,656	-63,930	0,196	-0,059
-552,642	76,761	0,041	-0,032
-551,627	800,000	0,028	-0,070
-550,612	70,330	-0,134	0,103
-549,598	237,333	-0,039	0,047
-548,583	-200,000	-0,012	-0,091
-547,569	113,509	-0,117	-0,105
-546,554	-194,462	0,134	-0,001
-545,539	136,020	-0,050	-0,048
-544,525	-200,000	0,023	0,104
-543,510	656,558	0,009	0,017
-542,496	0,915	0,098	-0,052
-541,481	173,201	-0,056	0,059
-540,466	-200,000	0,015	0,131
-539,452	63,456	0,096	0,071
-538,437	-200,000	-0,011	0,044
-537,423	407,403	0,021	0,032
-536,408	255,275	-0,096	-0,122
-535,393	-200,000	0,004	-0,026
-534,379	-72,894	0,024	-0,006
-533,364	534,532	-0,012	-0,022
-532,350	-31,803	-0,108	0,045
-531,335	-101,353	0,050	0,009
-530,321	50,481	-0,024	0,017
-529,306	800,000	-0,033	-0,076
-528,291	-200,000	0,005	-0,144
-527,277	70,543	-0,024	-0,018
-526,262	-200,000	-0,003	-0,153
-525,248	-87,488	-0,093	0,021
-524,233	-135,290	0,124	0,011
-523,218	24,251	0,090	0,055
-522,204	-200,000	0,008	0,029
-521,189	757,277	0,048	-0,097
-520,175	79,224	-0,133	-0,105
-519,160	800,000	-0,037	0,109
-518,145	5,970	0,112	-0,061
-517,131	-10,454	0,133	-0,065
-516,116	800,000	0,021	-0,068
-515,102	-1,614	0,149	-0,077
-514,087	800,000	-0,040	-0,123
-513,072	35,680	-0,138	-0,089
-512,058	143,945	0,109	-0,107
-511,043	-61,943	0,016	0,005
-510,029	643,102	0,103	0,195
-509,014	-44,630	-0,113	-0,041
-507,999	133,777	-0,047	-0,045
-506,985	-200,000	0,016	-0,076
-505,970	386,461	-0,030	-0,046
-504,956	-148,481	0,092	-0,005
-503,941	179,400	0,082	0,088
-502,926	-200,000	-0,009	0,077
-501,912	91,716	-0,036	0,030
-500,897	78,956	0,033	-0,026
-499,883	59,255	-0,124	-0,090
-498,868	-200,000	0,019	-0,077
-497,853	265,078	-0,074	-0,095
-496,839	-28,334	0,073	-0,031
-495,824	-200,000	-0,044	-0,160
-494,810	236,886	-0,084	-0,103
-493,795	47,630	0,076	0,052
-492,781	163,380	-0,094	-0,097
-491,766	-200,000	-0,023	-0,234
-490,751	773,571	0,016	0,033
-489,737	-200,000	0,021	-0,092
-488,722	392,424	-0,075	-0,115
-487,708	800,000	-0,017	-0,049
-486,693	355,169	-0,069	-0,102
-485,678	-125,345	0,100	0,011
-484,664	-15,473	-0,170	-0,080
-483,649	800,000	0,039	0,091
-482,635	19,785	-0,057	0,034
-481,620	-33,990	0,059	-0,024
-480,605	250,594	-0,033	-0,042
-479,591	280,404	0,041	-0,054
-478,576	142,042	0,018	-0,018
-477,562	-156,994	-0,026	0,001
-476,547	800,000	-0,051	0,128
-475,532	9,031	-0,129	0,071
-474,518	183,454	-0,067	0,073
-473,503	732,286	0,017	0,033
-472,489	-109,583	0,035	-0,005
-471,474	145,825	-0,033	0,033
-470,459	800,000	-0,017	-0,042
-469,445	-200,000	0,009	-0,085
-468,430	-200,000	0,001	-0,137
-467,416	36,486	0,100	-0,065
-466,401	800,000	-0,052	-0,111
-465,386	-200,000	-0,005	0,071
-464,372	283,134	-0,121	0,161
-463,357	-200,000	-0,017	0,076
-462,343	62,788	-0,086	-0,064
-461,328	-22,553	0,031	-0,014
-460,313	63,428	0,109	-0,081
-459,299	76,378	0,036	-0,028
-458,284	181,332	0,042	-0,046
-457,270	-32,209	0,046	-0,019
-456,255	-200,000	0,004	-0,051
-455,241	556,772	0,043	0,076
-454,226	46,821	-0,058	-0,040
-453,211	-47,464	0,091	0,032
-452,197	-182,898	0,029	-0,000
-451,182	800,000	0,050	0,148
-450,168	139,740	-0,032	0,031
-449,153	-200,000	0,023	-0,084
-448,138	-69,463	-0,105	-0,030
-447,124	738,346	0,019	-0,038
-446,109	-113,461	0,100	0,014
-445,095	800,000	-0,074	0,205
-444,080	486,812	-0,025	0,042
-443,065	-200,000	-0,005	0,025
-442,051	-85,766	0,163	-0,037
-441,036	-99,759	-0,086	-0,016
-440,022	-27,741	-0,089	-0,038
-439,007	405,551	0,015	-0,023
-437,992	-130,407	0,143	-0,014
-436,978	-66,325	-0,104	-0,030
-435,963	-200,000	-0,012	0,088
-434,949	279,538	0,094	0,124
-433,934	800,000	0,014	0,041
-432,919	-0,960	-0,090	0,047
-431,905	800,000	0,048	-0,156
-430,890	209,230	0,103	0,119
-429,876	800,000	0,021	0,060
-428,861	25,377	0,081	0,049
-427,846	-200,000	-0,010	0,050
-426,832	208,658	-0,037	-0,043
-425,817	-121,273	0,039	-0,005
-424,803	35,896	0,030	-0,020
-423,788	-200,000	0,019	0,069
-422,773	226,523	-0,085	0,102
-421,759	-10,829	0,046	0,022
-420,744	431,789	0,081	0,130
-419,730	75,395	-0,067	0,052
-418,715	-82,076	0,100	-0,024
-417,701	800,000	0,067	0,144
-416,686	-200,000	0,000	0,147
-415,671	71,359	0,029	-0,022
-414,657	-200,000	0,044	0,190
-413,642	800,000	0,046	0,122
-412,628	-155,778	0,093	0,004
-411,613	-200,000	-0,008	-0,072
-410,598	800,000	-0,026	-0,081
-409,584	270,791	0,054	-0,070
-408,569	322,143	-0,035	0,050
-407,555	-95,071	0,115	-0,023
-406,540	103,898	-0,054	0,047
-405,525	624,976	-0,024	0,045
-404,511	243,143	-0,029	-0,036
-403,496	-200,000	-0,016	0,062
-402,482	-200,000	0,018	0,112
-401,467	800,000	0,017	0,037
-400,452	140,742	0,070	0,068
-399,438	248,485	-0,099	0,123
-398,423	22,198	-0,049	0,029
-397,409	313,687	-0,035	0,048
-396,394	-200,000	0,002	-0,060
-395,379	-77,428	0,056	-0,014
-394,365	232,671	0,088	-0,106
-393,350	-200,000	-0,041	0,168
-392,336	123,770	-0,121	0,112
-391,321	-90,266	0,081	-0,017
-390,306	-120,391	0,076	-0,009
-389,292	-17,035	0,089	-0,041
-388,277	-200,000	0,015	0,099
-387,263	204,906	0,052	0,059
-386,248	744,492	0,046	-0,092
-385,233	311,261	0,158	0,218
-384,219	-29,034	0,118	-0,050
-383,204	53,135	-0,092	-0,065
-382,190	644,096	-0,021	0,039
-381,175	-17,555	0,044	-0,020
-380,160	-47,259	-0,185	0,066
-379,146	410,897	0,043	0,067
-378,131	254,861	-0,066	0,083
-377,117	21,981	-0,101	-0,060
-376,102	119,558	0,078	0,071
-375,088	20,270	-0,091	0,054
-374,073	3,049	-0,071	0,038
-373,058	165,873	0,097	0,101
-372,044	324,552	0,103	0,144
-371,029	7,746	0,046	0,025
-370,015	800,000	-0,062	0,162
-369,000	92,154	-0,062	-0,051
-367,985	127,693	0,025	-0,024
-366,971	87,337	-0,198	0,161
-365,956	-29,690	-0,064	0,027
-364,942	800,000	0,034	0,088
-363,927	-200,000	0,005	0,052
-362,912	34,628	0,049	0,031
-361,898	395,706	-0,041	0,063
-360,883	133,662	-0,058	-0,055
-359,869	-200,000	-0,006	0,063
-358,854	271,587	0,014	0,019
-357,839	-61,220	-0,076	-0,023
-356,825	553,506	-0,023	-0,042
-355,810	497,524	-0,026	-0,045
-354,796	75,895	0,130	-0,101
-353,781	-200,000	-0,022	0,096
-352,766	458,299	0,035	-0,057
-351,752	111,218	-0,012	0,011
-350,737	800,000	0,026	-0,074
-349,723	120,410	0,037	0,033
-348,708	105,098	0,039	-0,034
-347,693	223,242	0,060	-0,071
-346,679	5,607	-0,061	-0,033
-345,664	6,954	0,023	0,012
-344,650	-200,000	0,037	-0,160
-343,635	18,315	0,082	-0,048
-342,620	800,000	0,013	0,038
-341,606	370,788	-0,023	-0,034
-340,591	110,735	0,081	-0,072
-339,577	-34,904	-0,116	-0,046
-338,562	-112,785	-0,045	-0,006
-337,548	551,960	0,070	-0,124
-336,533	-200,000	0,012	-0,046
-335,518	-200,000	-0,012	0,093
-334,504	800,000	-0,056	0,162
-333,489	-200,000	0,006	0,120
-332,475	-79,630	-0,198	0,049
-331,460	713,090	-0,073	0,143
-330,445	231,461	0,043	-0,051
-329,431	-200,000	-0,030	0,148
-328,416	-200,000	0,015	0,123
-327,402	435,422	0,085	0,137
-326,387	-82,609	-0,104	-0,025
-325,372	93,530	-0,077	-0,064
-324,358	-2,110	0,073	0,038
-323,343	-157,758	-0,058	0,002
-322,329	-200,000	0,024	0,128
-321,314	453,777	-0,033	-0,054
-320,299	23,306	0,098	0,059
-319,285	-200,000	-0,028	0,092
-318,270	23,595	-0,086	-0,052
-317,256	79,321	0,035	0,028
-316,241	-27,575	-0,137	-0,058
-315,226	-132,774	-0,128	-0,012
-314,212	-107,953	-0,076	0,012
-313,197	-200,000	-0,003	0,078
-312,183	658,116	0,085	0,160
-311,168	639,546	0,036	-0,068
-310,153	-200,000	0,035	-0,194
-309,139	3,404	-0,020	-0,011
-308,124	302,814	0,014	-0,019
-307,110	412,431	-0,072	0,113
-306,095	-113,125	0,082	-0,012
-305,080	-175,750	-0,029	-0,001
-304,066	-200,000	-0,046	-0,161
-303,051	-103,626	-0,079	-0,014
-302,037	189,078	-0,019	-0,021
-301,022	50,210	-0,058	0,040
-300,008	800,000	0,010	-0,020
-298,993	224,450	0,046	0,054
-297,978	81,731	0,114	-0,090
-296,964	453,577	0,040	-0,065
-295,949	285,478	0,085	-0,112
-294,935	-176,566	-0,124	-0,002
-293,920	730,447	0,050	0,099
-292,905	19,247	0,075	-0,044
-291,891	-200,000	-0,014	0,146
-290,876	61,039	-0,136	0,099
-289,862	-162,008	-0,100	0,004
-288,847	200,787	0,075	-0,084
-287,832	203,390	-0,030	0,034
-286,818	-173,094	0,048	0,001
-285,803	-91,977	0,118	0,024
-284,789	39,498	0,082	0,054
-283,774	-200,000	0,006	0,073
-282,759	-161,725	-0,053	-0,002
-281,745	29,778	0,074	0,046
-280,730	33,042	0,131	-0,083
-279,716	800,000	-0,004	-0,010
-278,701	-18,929	0,108	0,049
-277,686	-200,000	0,008	0,090
-276,672	728,460	0,040	-0,078
-275,657	-105,763	0,087	0,014
-274,643	-78,887	-0,089	-0,022
-273,628	800,000	0,041	-0,105
-272,613	800,000	0,047	-0,144
-271,599	-26,010	0,085	0,036
-270,584	-200,000	0,017	0,162
-269,570	192,123	-0,124	0,137
-268,555	-84,394	-0,079	0,018
-267,540	-200,000	0,018	-0,058
-266,526	196,096	0,083	-0,093
-265,511	-11,267	0,117	0,056
-264,497	-54,304	0,079	0,026
-263,482	380,935	0,094	0,142
-262,467	-14,319	0,050	-0,024
-261,453	-46,173	0,015	0,005
-260,438	219,129	-0,036	-0,042
-259,424	-120,742	0,042	-0,005
-258,409	-64,549	-0,071	0,021
-257,395	-55,862	-0,051	-0,017
-256,380	-200,000	0,003	-0,031
-255,365	157,422	0,038	0,038
-254,351	-100,976	-0,048	-0,009
-253,336	-78,712	-0,060	-0,015
-252,322	12,908	-0,145	-0,082
-251,307	0,923	0,094	0,049
-250,292	-200,000	0,006	0,035
-249,278	-137,653	0,121	-0,010
-248,263	-200,000	-0,010	-0,075
-247,249	506,273	-0,024	-0,040
-246,234	-156,661	-0,136	-0,006
-245,219	-34,928	0,062	-0,025
-244,205	-200,000	0,003	0,084
-243,190	11,433	-0,035	-0,020
-242,176	800,000	-0,032	-0,076
-241,161	-200,000	0,034	0,116
-240,146	212,915	0,035	0,040
-239,132	57,487	-0,039	-0,028
-238,117	-147,688	0,111	0,007
-237,103	-200,000	-0,021	-0,079
-236,088	-200,000	0,105	0,000
-235,073	-22,300	0,125	0,055
-234,059	631,332	0,058	0,107
-233,044	143,733	-0,048	0,047
-232,030	7,146	-0,038	0,021
-231,015	338,744	-0,041	0,059
-230,000	7,363	-0,137	-0,075
-228,986	-200,000	-0,029	-0,115
-227,971	-200,000	0,009	-0,074
-226,957	335,695	-0,086	0,122
-225,942	-42,251	0,069	-0,026
-224,927	47,799	-0,126	0,086
-223,913	-200,000	0,032	0,109
-222,898	370,292	-0,076	-0,113
-221,884	34,767	-0,070	0,044
-220,869	-7,342	-0,131	0,064
-219,855	-105,476	0,153	0,025
-218,840	-77,311	0,053	-0,013
-217,825	800,000	-0,086	-0,202
-216,811	72,416	-0,037	-0,028
-215,796	750,999	0,052	-0,102
-214,782	164,086	-0,054	-0,055
-213,767	-88,328	-0,087	-0,019
-212,752	140,862	-0,067	-0,065
-211,738	428,161	0,058	0,091
-210,723	-46,284	-0,048	-0,017
-209,709	-200,000	0,019	-0,108
-208,694	312,488	-0,080	0,110
-207,679	-200,000	0,005	-0,146
-206,665	286,545	-0,096	0,127
-205,650	-3,330	0,105	0,053
-204,636	61,092	0,087	0,063
-203,621	149,841	-0,087	-0,086
-202,606	-78,592	-0,034	0,008
-201,592	800,000	0,042	0,089
-200,577	800,000	-0,014	0,030
-199,563	-23,457	0,080	-0,035
-198,548	-200,000	-0,025	0,083
-197,533	-200,000	-0,030	0,129
-196,519	62,490	-0,067	0,049
-195,504	800,000	0,026	-0,065
-194,490	66,778	-0,091	-0,067
-193,475	800,000	0,017	-0,044
-192,460	-173,513	0,108	0,002
-191,446	-135,309	-0,071	0,006
-190,431	-200,000	0,014	-0,059
-189,417	91,038	0,145	0,118
-188,402	-200,000	0,006	-0,062
-187,387	244,497	0,100	-0,122
-186,373	-66,737	0,106	-0,030
-185,358	-200,000	-0,012	0,074
-184,344	-200,000	0,011	0,091
-183,329	-200,000	0,003	0,085
-182,315	800,000	0,013	0,039
-181,300	91,928	-0,075	0,062
-180,285	45,662	-0,010	0,007
-179,271	-200,000	-0,010	-0,149
-178,256	-47,730	0,076	0,027
-177,242	800,000	-0,026	-0,055
-176,227	-26,267	0,074	0,031
-175,212	-105,514	-0,140	0,023
-174,198	364,633	-0,102	0,150
-173,183	-200,000	-0,013	-0,131
-172,169	800,000	-0,029	0,091
-171,154	-200,000	-0,061	-0,198
-170,139	-58,081	0,018	0,006
-169,125	552,772	-0,043	0,076
-168,110	38,131	0,060	0,039
-167,096	258,686	-0,070	0,089
-166,081	-80,849	-0,137	0,033
-165,066	77,237	-0,129	-0,100
-164,052	-4,169	0,091	-0,046
-163,037	731,864	0,063	0,124
-162,023	464,909	0,083	0,137
-161,008	-200,000	0,003	0,099
-159,993	-35,498	-0,118	-0,047
-158,979	232,728	-0,056	-0,067
-157,964	355,812	0,023	-0,033
-156,950	800,000	-0,035	-0,081
-155,935	-200,000	0,006	-0,038
-154,920	540,353	-0,014	-0,025
-153,906	-51,600	-0,123	0,042
-152,891	-200,000	-0,163	-0,000
-151,877	-5,167	-0,065	0,033
-150,862	-76,519	-0,119	0,030
-149,847	131,588	-0,054	0,050
-148,833	462,575	-0,069	0,112
-147,818	659,263	0,043	-0,081
-146,804	174,789	0,075	0,079
-145,789	101,361	-0,040	0,034
-144,775	606,809	-0,010	0,018
-143,760	-200,000	-0,006	0,142
-142,745	-200,000	0,002	0,027
-141,731	-102,036	-0,075	0,013
-140,716	-112,858	0,126	-0,018
-139,702	-200,000	-0,004	0,015
-138,687	-200,000	-0,017	0,073
-137,672	-200,000	0,008	0,028
-136,658	800,000	-0,042	-0,108
-135,643	111,220	0,074	0,065
-134,629	800,000	-0,035	-0,102
-133,614	-150,193	-0,054	-0,003
-132,599	49,647	0,160	0,109
-131,585	-200,000	0,039	0,136
-130,570	377,985	-0,039	-0,058
-129,556	108,518	0,018	0,015
-128,541	-172,655	-0,043	0,001
-127,526	-200,000	-0,006	-0,061
-126,512	410,553	0,049	0,075
-125,497	581,063	0,058	0,104
-124,483	-19,482	0,053	-0,024
-123,468	-200,000	-0,001	0,027
-122,453	-200,000	0,006	0,038
-121,439	800,000	-0,050	0,149
-120,424	-200,000	0,010	-0,100
-119,410	-114,919	0,033	0,004
