DTS Sentinel unit serial number:	SN410029Multiplexer serial number:	ORYXHardware model number:	OX2-SRSoftware version number:	ORYX F/W v4,00 Oryx Data Collector v3.7.2.0data status	okinstallation	B6 Nyhavnadifferential loss correction	single-endedforward channel	channel 2reverse channel	N/Adate	2023/12/09time	04:50:08forward acquisition time	300,00reverse acquisition time	0,00gamma	499,1914k internal	0,3145k external	0,3145temperature offset calibration	1,0000default loss term (dB/km)	0,3820temperature slope calibration	1,0000multiplexer offset coefficient	1,0000multiplexer slope coefficient	1,0000fibre end	0,00T internal ref (°C)	17,39T ext. ref 1 (°C)	1,94T ext. ref 2 (°C)	1,97length (m)	temperature (°C)	Stokes	anti-Stokes-744,400	-109,325	0,174	0,027
-743,385	-79,847	-0,253	0,063
-742,371	503,533	0,087	0,149
-741,356	-74,204	-0,265	0,071
-740,342	-64,906	0,120	-0,036
-739,327	-149,590	-0,284	0,016
-738,312	-57,242	0,010	-0,003
-737,298	-92,564	-0,392	0,081
-736,283	651,563	0,088	0,167
-735,269	-131,791	-0,249	0,024
-734,254	-85,670	0,190	-0,043
-733,239	-128,069	-0,473	-0,050
-732,225	-120,793	0,162	-0,020
-731,210	187,696	0,044	0,049
-730,196	65,417	-0,031	0,023
-729,181	800,000	-0,010	-0,022
-728,167	322,544	0,048	0,068
-727,152	16,644	-0,090	0,052
-726,137	225,328	-0,053	-0,063
-725,123	279,906	-0,056	0,074
-724,108	2,561	-0,047	0,025
-723,094	233,750	0,027	-0,033
-722,079	21,730	-0,058	-0,035
-721,064	233,023	0,043	-0,053
-720,050	202,628	-0,063	-0,072
-719,035	44,092	-0,053	-0,036
-718,021	-200,000	0,026	0,092
-717,006	800,000	-0,107	-0,221
-715,991	54,318	0,065	-0,046
-714,977	200,545	0,109	-0,124
-713,962	-2,434	-0,063	0,032
-712,948	-147,325	-0,085	-0,005
-711,933	-200,000	-0,006	0,059
-710,918	-200,000	0,006	-0,116
-709,904	-112,526	0,103	0,015
-708,889	602,100	-0,020	-0,037
-707,875	324,479	-0,072	-0,102
-706,860	-94,442	0,111	-0,022
-705,845	-200,000	-0,012	0,071
-704,831	90,215	0,081	-0,067
-703,816	800,000	0,016	0,034
-702,802	-2,484	-0,152	0,078
-701,787	-200,000	-0,009	-0,067
-700,772	31,407	0,059	-0,037
-699,758	0,386	-0,043	-0,023
-698,743	-99,408	0,071	-0,013
-697,729	147,812	0,037	-0,037
-696,714	800,000	-0,030	-0,065
-695,699	800,000	-0,066	-0,169
-694,685	30,730	-0,133	-0,084
-693,670	-66,188	0,118	-0,034
-692,656	-200,000	0,012	0,091
-691,641	-200,000	0,000	0,031
-690,627	-200,000	-0,012	0,096
-689,612	-200,000	0,004	-0,130
-688,597	420,639	-0,016	-0,025
-687,583	335,574	-0,040	0,057
-686,568	-81,237	-0,070	-0,017
-685,554	800,000	-0,009	-0,025
-684,539	-74,325	0,022	0,006
-683,524	522,875	0,030	0,052
-682,510	-129,035	0,050	0,005
-681,495	-200,000	-0,031	-0,129
-680,481	40,264	-0,205	-0,136
-679,466	800,000	-0,031	-0,081
-678,451	-158,782	-0,118	0,005
-677,437	-147,472	0,058	0,004
-676,422	-200,000	-0,007	-0,033
-675,408	-91,801	0,087	-0,018
-674,393	-36,141	-0,054	-0,021
-673,378	3,815	-0,112	0,060
-672,364	123,248	-0,119	-0,110
-671,349	-200,000	-0,001	-0,099
-670,335	-35,915	0,185	0,074
-669,320	-200,000	0,027	-0,198
-668,305	800,000	-0,042	-0,100
-667,291	485,446	-0,103	0,174
-666,276	215,169	-0,044	-0,052
-665,262	151,257	0,062	-0,062
-664,247	-200,000	-0,025	-0,125
-663,232	11,077	0,092	0,052
-662,218	603,549	-0,026	0,048
-661,203	156,536	0,105	-0,107
-660,189	54,005	-0,081	-0,058
-659,174	-61,338	-0,078	-0,024
-658,159	-54,970	-0,013	0,004
-657,145	-200,000	0,003	0,034
-656,130	-5,700	0,075	-0,038
-655,116	-200,000	-0,005	-0,037
-654,101	-200,000	-0,054	0,281
-653,086	-140,502	-0,087	0,007
-652,072	-200,000	-0,037	-0,152
-651,057	800,000	-0,050	-0,154
-650,043	-200,000	0,011	0,058
-649,028	-80,053	-0,050	0,012
-648,014	-200,000	0,001	-0,103
-646,999	-146,847	0,114	-0,007
-645,984	-200,000	-0,003	-0,197
-644,970	-200,000	-0,040	-0,135
-643,955	-138,641	-0,256	-0,020
-642,941	-200,000	0,027	-0,099
-641,926	45,260	0,031	-0,021
-640,911	-200,000	-0,018	-0,120
-639,897	18,768	-0,049	0,029
-638,882	800,000	0,042	0,101
-637,868	4,327	0,083	-0,045
-636,853	3,858	-0,080	-0,043
-635,838	-200,000	0,007	-0,041
-634,824	332,997	-0,100	-0,143
-633,809	800,000	0,050	0,138
-632,795	800,000	-0,037	-0,080
-631,780	-2,388	-0,098	0,050
-630,765	-102,761	0,108	-0,019
-629,751	-40,466	-0,084	-0,032
-628,736	131,955	-0,109	0,104
-627,722	457,956	0,018	0,030
-626,707	-126,911	0,077	-0,008
-625,692	-200,000	0,003	0,044
-624,678	90,643	-0,047	0,039
-623,663	-26,394	-0,054	0,023
-622,649	23,150	-0,053	-0,032
-621,634	-200,000	-0,000	-0,111
-620,619	-200,000	-0,003	-0,053
-619,605	-181,794	-0,038	-0,001
-618,590	800,000	0,087	-0,198
-617,576	-200,000	0,007	0,088
-616,561	11,081	0,044	-0,025
-615,546	72,101	-0,075	0,058
-614,532	123,300	-0,022	0,020
-613,517	11,126	0,081	0,046
-612,503	200,291	-0,068	0,077
-611,488	-200,000	0,043	-0,145
-610,474	-5,006	0,116	0,058
-609,459	-200,000	0,007	0,047
-608,444	229,343	0,107	-0,129
-607,430	275,818	-0,081	-0,106
-606,415	-108,238	0,113	-0,018
-605,401	-200,000	0,031	0,110
-604,386	367,917	0,030	0,045
-603,371	-200,000	0,021	0,122
-602,357	427,852	-0,039	0,062
-601,342	-160,924	0,102	-0,004
-600,328	52,411	-0,109	-0,077
-599,313	-108,054	-0,185	-0,029
-598,298	-89,858	-0,092	0,020
-597,284	-200,000	-0,017	0,061
-596,269	800,000	-0,038	0,106
-595,255	79,849	-0,041	0,032
-594,240	-10,080	-0,068	-0,033
-593,225	125,778	0,050	-0,047
-592,211	18,707	-0,088	0,052
-591,196	-200,000	-0,010	0,157
-590,182	131,332	-0,043	-0,040
-589,167	147,178	-0,063	-0,062
-588,152	-21,698	-0,037	-0,017
-587,138	391,655	0,071	0,109
-586,123	800,000	-0,023	-0,050
-585,109	800,000	0,041	-0,121
-584,094	109,847	-0,052	-0,046
-583,079	156,730	0,100	0,101
-582,065	171,498	0,083	-0,088
-581,050	-189,482	-0,063	-0,001
-580,036	800,000	0,058	0,120
-579,021	-200,000	-0,011	0,082
-578,006	344,587	0,079	-0,115
-576,992	-168,413	0,019	-0,001
-575,977	30,344	0,098	-0,061
-574,963	-200,000	0,010	0,033
-573,948	-25,749	0,069	0,030
-572,934	311,507	-0,043	0,059
-571,919	-200,000	0,018	-0,095
-570,904	-99,750	-0,057	0,010
-569,890	124,539	-0,016	-0,015
-568,875	800,000	0,036	0,097
-567,861	-8,868	0,141	0,069
-566,846	-200,000	-0,023	0,187
-565,831	180,166	-0,011	0,012
-564,817	800,000	-0,037	-0,111
-563,802	-200,000	0,017	-0,133
-562,788	-71,910	-0,064	-0,017
-561,773	-200,000	-0,011	-0,104
-560,758	800,000	0,077	0,202
-559,744	87,261	-0,077	0,063
-558,729	-19,145	-0,073	0,033
-557,715	-9,778	0,193	0,094
-556,700	-200,000	0,013	-0,063
-555,685	800,000	0,015	0,035
-554,671	237,432	-0,063	0,077
-553,656	-200,000	-0,018	-0,062
-552,642	-200,000	-0,004	0,082
-551,627	-12,471	0,051	-0,025
-550,612	-175,760	0,061	-0,001
-549,598	665,635	-0,029	-0,055
-548,583	-153,663	-0,054	-0,003
-547,569	-200,000	-0,008	-0,045
-546,554	-62,666	0,069	-0,021
-545,539	453,820	-0,036	0,059
-544,525	610,763	0,040	-0,074
-543,510	60,124	-0,075	-0,054
-542,496	592,013	0,024	-0,043
-541,481	-46,614	-0,034	-0,012
-540,466	800,000	-0,057	0,116
-539,452	219,199	0,017	0,020
-538,437	-200,000	0,042	0,144
-537,423	1,251	0,055	0,029
-536,408	-24,436	-0,123	-0,054
-535,393	5,928	-0,046	0,025
-534,379	800,000	-0,075	-0,174
-533,364	123,692	0,094	-0,086
-532,350	800,000	0,066	-0,178
-531,335	-200,000	0,005	0,072
-530,321	718,558	0,009	-0,017
-529,306	271,798	0,067	-0,086
-528,291	800,000	-0,057	-0,151
-527,277	-200,000	-0,018	-0,127
-526,262	-125,881	-0,048	0,005
-525,248	15,058	0,066	-0,038
-524,233	-105,835	0,100	0,016
-523,218	-200,000	0,015	-0,097
-522,204	-200,000	-0,011	-0,191
-521,189	311,535	0,095	-0,131
-520,175	82,631	0,048	-0,038
-519,160	-4,509	-0,070	-0,036
-518,145	-87,193	0,131	0,029
-517,131	-200,000	0,006	0,095
-516,116	-200,000	-0,027	-0,192
-515,102	800,000	-0,046	-0,112
-514,087	-102,522	-0,129	0,022
-513,072	218,746	-0,062	-0,073
-512,058	38,047	0,104	0,068
-511,043	-161,937	-0,017	0,001
-510,029	-200,000	-0,037	0,139
-509,014	101,838	-0,087	0,075
-507,999	667,298	-0,076	0,145
-506,985	-137,732	-0,041	0,003
-505,970	117,095	0,019	0,017
-504,956	5,793	-0,245	-0,132
-503,941	-200,000	-0,013	0,102
-502,926	-200,000	0,012	0,062
-501,912	365,303	-0,106	0,157
-500,897	162,560	-0,070	0,073
-499,883	741,310	-0,051	-0,100
-498,868	800,000	-0,057	-0,136
-497,853	-200,000	-0,016	-0,143
-496,839	-100,208	0,157	0,028
-495,824	-200,000	-0,044	0,162
-494,810	-46,411	-0,073	0,026
-493,795	-200,000	0,007	0,035
-492,781	260,909	-0,116	0,147
-491,766	33,450	-0,092	-0,058
-490,751	-17,928	-0,101	-0,046
-489,737	98,679	0,042	-0,035
-488,722	726,082	0,012	0,023
-487,708	-107,066	0,065	-0,010
-486,693	800,000	-0,066	0,177
-485,678	800,000	-0,023	0,054
-484,664	-200,000	0,010	0,087
-483,649	698,413	-0,075	-0,145
-482,635	204,788	0,062	-0,071
-481,620	154,720	0,037	0,038
-480,605	1,930	-0,054	0,029
-479,591	-43,458	-0,016	-0,006
-478,576	44,551	-0,063	-0,042
-477,562	800,000	-0,039	-0,109
-476,547	166,190	-0,091	0,094
-475,532	77,198	-0,129	-0,100
-474,518	26,007	0,122	0,074
-473,503	236,569	-0,051	-0,062
-472,489	800,000	-0,013	0,034
-471,474	-200,000	-0,007	-0,093
-470,459	97,077	-0,040	0,033
-469,445	-4,122	0,060	-0,030
-468,430	381,423	0,117	-0,176
-467,416	-79,731	-0,051	-0,012
-466,401	-21,710	0,131	0,058
-465,386	247,725	0,017	0,022
-464,372	-200,000	0,028	-0,113
-463,357	-149,552	0,053	-0,003
-462,343	69,187	0,042	0,032
-461,328	767,514	-0,065	0,129
-460,313	-200,000	-0,004	-0,020
-459,299	-6,549	-0,124	0,062
-458,284	-120,915	0,045	-0,005
-457,270	327,995	0,069	-0,097
-456,255	-200,000	0,017	-0,064
-455,241	-10,223	0,134	-0,065
-454,226	382,048	0,113	-0,170
-453,211	31,000	0,041	0,025
-452,197	135,286	-0,070	-0,067
-451,182	543,967	0,065	-0,114
-450,168	800,000	-0,050	-0,103
-449,153	370,650	-0,063	-0,094
-448,138	493,107	-0,049	-0,082
-447,124	321,702	-0,051	-0,072
-446,109	105,710	0,070	0,061
-445,095	-59,890	0,101	-0,031
-444,080	-50,209	-0,103	-0,035
-443,065	-143,385	0,130	0,009
-442,051	-200,000	0,019	-0,069
-441,036	-72,225	-0,072	-0,019
-440,022	279,804	-0,071	0,092
-439,007	406,275	0,058	-0,091
-437,992	800,000	-0,040	0,101
-436,978	-200,000	0,000	-0,025
-435,963	40,915	0,098	0,064
-434,949	147,417	-0,070	-0,069
-433,934	-200,000	-0,003	-0,118
-432,919	399,641	0,056	-0,087
-431,905	356,240	0,075	0,109
-430,890	168,218	0,130	-0,135
-429,876	-60,900	-0,059	-0,018
-428,861	-200,000	-0,001	-0,112
-427,846	-200,000	-0,027	-0,102
-426,832	255,167	-0,072	-0,091
-425,817	-142,084	-0,055	-0,004
-424,803	-29,020	0,148	0,062
-423,788	28,401	0,073	0,045
-422,773	-81,364	-0,054	-0,013
-421,759	-106,840	0,055	-0,009
-420,744	86,761	0,063	-0,051
-419,730	-106,124	-0,049	-0,008
-418,715	62,045	0,050	0,037
-417,701	-13,020	0,095	0,045
-416,686	24,226	0,016	-0,010
-415,671	50,809	0,103	0,071
-414,657	79,463	0,044	-0,034
-413,642	-200,000	-0,012	-0,054
-412,628	41,294	-0,052	0,034
-411,613	170,870	-0,028	-0,030
-410,598	-6,963	-0,139	0,069
-409,584	224,716	0,060	0,071
-408,569	38,327	0,117	0,076
-407,555	305,615	0,029	0,040
-406,540	-200,000	0,004	-0,030
-405,525	-77,395	0,232	-0,058
-404,511	77,168	0,086	-0,067
-403,496	13,011	-0,084	-0,047
-402,482	-167,767	0,176	0,005
-401,467	-200,000	0,004	0,148
-400,452	162,740	0,068	-0,070
-399,438	-155,122	-0,089	0,004
-398,423	-41,947	-0,029	-0,011
-397,409	-200,000	0,014	-0,252
-396,394	-160,079	0,089	0,003
-395,379	-42,336	-0,068	0,025
-394,365	-200,000	0,026	0,125
-393,350	156,082	0,107	0,108
-392,336	273,810	0,093	0,121
-391,321	52,019	-0,106	-0,073
-390,306	-200,000	-0,003	-0,026
-389,292	-87,274	0,087	-0,019
-388,277	11,944	-0,073	0,041
-387,263	-112,802	-0,063	-0,009
-386,248	-200,000	0,032	0,118
-385,233	511,337	0,057	0,097
-384,219	800,000	0,037	0,109
-383,204	-165,752	-0,120	-0,004
-382,190	31,232	-0,020	0,013
-381,175	101,599	-0,125	0,107
-380,160	-200,000	0,017	-0,140
-379,146	411,713	0,033	-0,051
-378,131	-200,000	-0,025	0,088
-377,117	-200,000	0,005	0,020
-376,102	-200,000	0,031	-0,120
-375,088	-10,769	-0,087	-0,042
-374,073	-64,135	-0,067	0,020
-373,058	-200,000	0,051	0,172
-372,044	-200,000	0,028	0,135
-371,029	800,000	0,037	-0,078
-370,015	20,051	0,059	0,035
-369,000	221,576	0,067	-0,079
-367,985	800,000	0,025	-0,053
-366,971	-200,000	0,006	0,079
-365,956	156,971	0,043	0,043
-364,942	-200,000	0,021	0,119
-363,927	109,089	0,140	0,122
-362,912	-200,000	0,007	0,074
-361,898	10,964	0,034	0,019
-360,883	800,000	0,058	-0,124
-359,869	-200,000	0,004	0,026
-358,854	800,000	-0,019	-0,045
-357,839	62,730	0,174	-0,127
-356,825	483,343	-0,072	-0,119
-355,810	81,310	-0,141	0,111
-354,796	329,463	0,039	-0,055
-353,781	121,738	0,073	-0,067
-352,766	31,834	-0,076	-0,048
-351,752	-19,190	0,140	0,063
-350,737	89,278	0,098	0,080
-349,723	328,260	0,056	-0,078
-348,708	-200,000	-0,015	0,057
-347,693	800,000	0,030	-0,066
-346,679	294,175	-0,050	0,066
-345,664	-200,000	-0,001	-0,085
-344,650	649,280	-0,058	-0,108
-343,635	197,166	0,012	0,013
-342,620	800,000	-0,046	-0,099
-341,606	261,450	-0,038	0,048
-340,591	-2,539	-0,113	-0,057
-339,577	800,000	-0,054	-0,162
-338,562	-67,911	0,002	-0,001
-337,548	-70,200	0,058	-0,016
-336,533	-200,000	-0,008	0,130
-335,518	800,000	0,019	0,046
-334,504	800,000	0,066	-0,146
-333,489	264,657	0,080	-0,101
-332,475	-200,000	0,009	-0,033
-331,460	-200,000	-0,021	0,186
-330,445	116,797	-0,054	-0,049
-329,431	67,862	-0,082	-0,061
-328,416	-200,000	0,018	-0,059
-327,402	-93,679	-0,130	-0,026
-326,387	800,000	-0,012	0,035
-325,372	-6,319	-0,018	-0,009
-324,358	13,203	-0,054	0,031
-323,343	97,414	0,086	0,072
-322,329	97,166	-0,073	0,061
-321,314	346,442	0,105	0,151
-320,299	-200,000	0,001	0,028
-319,285	-200,000	-0,018	0,073
-318,270	-37,136	0,105	0,041
-317,256	-200,000	0,029	-0,110
-316,241	60,434	0,054	0,039
-315,226	386,398	-0,061	-0,092
-314,212	-200,000	0,039	0,148
-313,197	84,149	0,081	0,064
-312,183	800,000	-0,090	0,227
-311,168	166,717	0,080	-0,082
-310,153	-30,729	-0,050	-0,020
-309,139	98,306	-0,074	-0,062
-308,124	-16,111	0,140	0,064
-307,110	234,011	0,035	0,042
-306,095	-88,718	-0,077	-0,016
-305,080	-200,000	0,031	0,121
-304,066	118,091	0,099	-0,088
-303,051	-21,685	-0,084	-0,037
-302,037	114,644	-0,012	-0,010
-301,022	-36,672	0,163	0,063
-300,008	-125,503	0,081	-0,009
-298,993	207,858	0,062	0,071
-297,978	561,120	0,089	0,157
-296,964	-2,964	-0,042	0,022
-295,949	-200,000	-0,002	0,064
-294,935	437,285	0,068	0,108
-293,920	66,160	-0,020	-0,014
-292,905	164,114	0,040	-0,041
-291,891	-200,000	-0,014	0,055
-290,876	-200,000	0,010	0,105
-289,862	-200,000	-0,031	-0,101
-288,847	-200,000	0,031	-0,175
-287,832	-200,000	0,038	-0,132
-286,818	262,738	0,012	-0,015
-285,803	47,677	0,084	-0,057
-284,789	-43,744	0,164	0,060
-283,774	148,399	0,043	-0,043
-282,759	800,000	0,024	0,068
-281,745	-200,000	-0,015	-0,061
-280,730	-173,668	-0,051	0,001
-279,716	604,390	-0,029	0,052
-278,701	-189,088	0,101	-0,001
-277,686	-200,000	-0,001	0,059
-276,672	20,438	0,112	0,065
-275,657	559,905	-0,037	0,065
-274,643	-90,750	-0,174	0,036
-273,628	-200,000	-0,015	0,155
-272,613	800,000	-0,018	-0,051
-271,599	-92,339	-0,146	0,030
-270,584	-18,273	-0,081	0,037
-269,570	102,689	0,106	0,090
-268,555	-114,076	-0,165	-0,023
-267,540	-200,000	-0,002	-0,115
-266,526	-200,000	-0,000	-0,081
-265,511	-136,216	-0,103	-0,009
-264,497	-200,000	0,050	0,172
-263,482	365,562	0,065	0,095
-262,467	614,660	-0,027	0,050
-261,453	484,216	-0,050	0,083
-260,438	-200,000	-0,018	-0,105
-259,424	244,558	-0,058	-0,072
-258,409	209,684	-0,042	-0,048
-257,395	784,586	0,068	0,135
-256,380	233,582	0,070	0,084
-255,365	-171,431	0,077	0,002
-254,351	216,314	-0,041	0,048
-253,336	-4,494	0,050	-0,025
-252,322	-114,761	-0,090	-0,012
-251,307	113,663	-0,119	0,105
-250,292	-55,597	0,085	-0,027
-249,278	-28,375	0,107	-0,045
-248,263	20,577	-0,197	0,116
-247,249	-200,000	-0,014	-0,134
-246,234	800,000	0,060	0,127
-245,219	-59,544	-0,119	0,037
-244,205	34,431	-0,054	-0,034
-243,190	52,821	0,094	0,065
-242,176	-7,624	0,038	-0,019
-241,161	-103,734	-0,091	0,015
-240,146	-200,000	0,006	0,131
-239,132	-70,782	0,074	0,020
-238,117	-200,000	-0,006	-0,083
-237,103	256,520	0,045	0,057
-236,088	-200,000	0,021	-0,072
-235,073	51,544	0,031	0,021
-234,059	448,699	0,023	-0,036
-233,044	-151,651	-0,111	-0,006
-232,030	9,084	-0,069	0,037
-231,015	280,576	-0,029	-0,038
-230,000	71,895	0,034	-0,025
-228,986	82,012	-0,005	-0,004
-227,971	341,059	-0,032	0,045
-226,957	-200,000	-0,014	-0,175
-225,942	-85,425	-0,111	-0,025
-224,927	350,921	-0,008	-0,011
-223,913	800,000	-0,015	-0,033
-222,898	-92,511	-0,148	0,030
-221,884	85,925	0,130	-0,104
-220,869	525,464	0,021	0,036
-219,855	413,918	0,039	0,060
-218,840	-200,000	-0,020	0,098
-217,825	-200,000	-0,009	0,133
-216,811	480,539	0,026	-0,042
-215,796	12,544	-0,059	-0,033
-214,782	-200,000	0,012	0,102
-213,767	-170,764	-0,132	-0,003
-212,752	-111,304	0,141	-0,021
-211,738	8,237	-0,020	0,011
-210,723	-4,857	-0,052	0,026
-209,709	-105,285	0,031	-0,005
-208,694	-27,902	0,039	0,016
-207,679	87,010	-0,092	0,073
-206,665	105,144	-0,019	-0,016
-205,650	-164,944	-0,054	-0,002
-204,636	-200,000	0,000	0,078
-203,621	-55,457	-0,149	-0,048
-202,606	-137,106	0,036	-0,003
-201,592	326,613	-0,110	-0,152
-200,577	-146,438	-0,068	-0,004
-199,563	338,950	0,046	0,065
-198,548	117,320	-0,051	0,046
-197,533	185,044	0,040	-0,043
-196,519	76,630	-0,104	0,080
-195,504	-111,372	-0,083	-0,012
-194,490	-200,000	-0,009	-0,060
-193,475	-200,000	0,014	-0,065
-192,460	316,249	0,079	-0,108
-191,446	60,987	-0,031	-0,022
-190,431	800,000	-0,050	0,102
-189,417	28,551	-0,050	0,031
-188,402	-200,000	-0,014	0,048
-187,387	-200,000	-0,020	-0,125
-186,373	782,660	-0,031	-0,062
-185,358	-139,052	0,112	-0,009
-184,344	162,812	0,021	0,022
-183,329	44,872	-0,149	0,099
-182,315	123,905	0,054	-0,049
-181,300	-200,000	-0,039	-0,174
-180,285	-200,000	-0,008	0,077
-179,271	-130,975	-0,108	-0,010
-178,256	-200,000	-0,011	0,065
-177,242	800,000	-0,023	0,062
-176,227	800,000	0,047	0,104
-175,212	-200,000	0,017	0,134
-174,198	-1,387	0,053	-0,027
-173,183	-105,765	-0,149	-0,024
-172,169	-200,000	0,003	-0,043
-171,154	433,273	-0,044	-0,069
-170,139	-200,000	-0,021	0,114
-169,125	162,040	0,068	-0,069
-168,110	800,000	0,059	0,132
-167,096	-112,197	0,129	0,018
-166,081	-169,844	0,152	0,004
-165,066	-156,963	-0,062	0,003
-164,052	111,677	0,086	-0,075
-163,037	191,559	-0,002	-0,002
-162,023	-200,000	-0,005	0,173
-161,008	405,052	0,039	-0,060
-159,993	800,000	0,006	-0,015
-158,979	260,382	-0,048	0,060
-157,964	76,823	-0,105	0,080
-156,950	16,440	0,033	0,019
-155,935	56,445	-0,125	0,088
-154,920	-153,428	0,094	-0,005
-153,906	723,425	0,025	0,048
-152,891	16,095	0,108	0,061
-151,877	-5,877	-0,074	-0,037
-150,862	-200,000	0,006	0,032
-149,847	617,262	-0,012	0,022
-148,833	-200,000	0,006	-0,095
-147,818	-104,757	0,131	-0,022
-146,804	246,922	0,075	-0,092
-145,789	-200,000	-0,021	0,144
-144,775	-200,000	-0,017	-0,058
-143,760	222,203	-0,007	0,008
-142,745	-200,000	-0,013	-0,063
-141,731	800,000	-0,050	-0,150
-140,716	-200,000	0,032	-0,111
-139,702	-200,000	-0,020	0,093
-138,687	-200,000	0,000	0,004
-137,672	800,000	0,020	0,055
-136,658	226,315	-0,041	0,048
-135,643	800,000	0,019	-0,056
-134,629	-200,000	-0,004	-0,043
-133,614	193,070	0,076	-0,083
-132,599	251,518	0,033	-0,040
-131,585	-200,000	0,009	-0,091
-130,570	-28,178	0,097	-0,040
-129,556	800,000	-0,087	-0,182
-128,541	-105,828	-0,042	-0,007
-127,526	-82,294	-0,085	0,020
-126,512	-55,340	0,083	0,027
-125,497	412,462	0,054	-0,083
-124,483	514,763	-0,053	0,090
-123,468	-200,000	0,007	-0,053
-122,453	-136,993	-0,197	0,016
-121,439	-92,299	0,055	-0,011
-120,424	-104,372	0,129	-0,021
