DTS Sentinel unit serial number:	SN410029Multiplexer serial number:	ORYXHardware model number:	OX2-SRSoftware version number:	ORYX F/W v4,00 Oryx Data Collector v3.7.2.0data status	okinstallation	B6 Nyhavnadifferential loss correction	single-endedforward channel	channel 2reverse channel	N/Adate	2023/12/08time	18:25:08forward acquisition time	300,00reverse acquisition time	0,00gamma	499,1914k internal	0,3158k external	0,3158temperature offset calibration	1,0000default loss term (dB/km)	0,3820temperature slope calibration	1,0000multiplexer offset coefficient	1,0000multiplexer slope coefficient	1,0000fibre end	0,00T internal ref (°C)	15,26T ext. ref 1 (°C)	-1,23T ext. ref 2 (°C)	-1,22length (m)	temperature (°C)	Stokes	anti-Stokes-744,400	800,000	0,057	-0,142
-743,385	-151,945	-0,158	-0,008
-742,371	800,000	0,029	0,069
-741,356	-101,978	-0,447	0,079
-740,342	-91,780	0,217	0,045
-739,327	-67,037	-0,344	-0,099
-738,312	-200,000	-0,005	0,061
-737,298	-124,702	-0,246	0,028
-736,283	800,000	0,033	-0,076
-735,269	-162,457	-0,262	0,009
-734,254	-152,602	0,275	0,014
-733,239	-46,706	-0,639	-0,229
-732,225	-124,268	0,061	0,007
-731,210	384,471	-0,094	0,143
-730,196	-77,811	-0,106	0,027
-729,181	244,977	-0,096	-0,119
-728,167	-200,000	0,006	-0,080
-727,152	800,000	0,064	-0,134
-726,137	-139,775	-0,014	-0,001
-725,123	331,097	-0,068	0,097
-724,108	-166,066	-0,069	0,002
-723,094	40,161	-0,059	0,039
-722,079	800,000	-0,034	0,086
-721,064	-51,499	-0,139	0,048
-720,050	-200,000	0,005	-0,031
-719,035	-145,699	0,071	-0,005
-718,021	-200,000	-0,002	-0,073
-717,006	405,996	-0,042	-0,065
-715,991	-200,000	0,008	-0,044
-714,977	240,404	-0,025	-0,030
-713,962	171,364	0,094	-0,100
-712,948	-200,000	0,000	-0,040
-711,933	-73,529	0,125	-0,033
-710,918	124,887	-0,067	0,062
-709,904	490,830	-0,114	-0,193
-708,889	176,989	-0,094	0,101
-707,875	-25,183	-0,155	0,067
-706,860	27,174	-0,025	0,016
-705,845	-200,000	0,036	-0,122
-704,831	-148,618	0,017	-0,001
-703,816	-200,000	-0,009	0,051
-702,802	-53,663	-0,085	-0,029
-701,787	-200,000	-0,019	0,100
-700,772	-33,089	-0,124	0,050
-699,758	-52,450	-0,052	0,018
-698,743	-113,475	0,119	-0,017
-697,729	107,968	-0,028	0,025
-696,714	7,145	-0,051	0,028
-695,699	184,590	0,053	0,058
-694,685	-47,054	-0,103	-0,037
-693,670	-60,131	0,062	0,019
-692,656	77,973	0,091	-0,072
-691,641	-200,000	-0,003	-0,051
-690,627	-83,342	0,026	0,006
-689,612	304,001	-0,073	-0,099
-688,597	315,034	-0,084	-0,117
-687,583	89,475	-0,084	-0,069
-686,568	-147,636	-0,160	-0,010
-685,554	70,649	0,122	0,093
-684,539	-120,566	-0,094	-0,012
-683,524	328,417	-0,081	0,115
-682,510	495,689	0,031	-0,053
-681,495	385,555	-0,067	-0,102
-680,481	-84,710	0,078	-0,018
-679,466	116,762	-0,038	0,034
-678,451	800,000	-0,029	-0,078
-677,437	-200,000	0,001	-0,064
-676,422	-41,739	0,030	0,011
-675,408	105,953	0,030	0,026
-674,393	637,787	-0,030	0,057
-673,378	800,000	-0,077	-0,199
-672,364	-200,000	-0,012	-0,088
-671,349	-26,515	0,106	-0,045
-670,335	332,065	-0,025	-0,036
-669,320	43,676	0,024	0,016
-668,305	800,000	0,060	-0,159
-667,291	-200,000	0,009	-0,099
-666,276	210,373	-0,017	0,020
-665,262	-143,153	-0,010	0,001
-664,247	-160,294	-0,015	-0,001
-663,232	-59,117	-0,131	-0,041
-662,218	-67,816	-0,016	-0,005
-661,203	205,041	0,019	-0,022
-660,189	-200,000	0,001	0,061
-659,174	-200,000	-0,031	-0,209
-658,159	770,905	-0,038	-0,077
-657,145	-200,000	0,017	-0,089
-656,130	-93,530	0,161	0,032
-655,116	800,000	0,040	-0,089
-654,101	-200,000	0,011	0,056
-653,086	-136,262	0,042	-0,004
-652,072	-44,614	-0,152	-0,056
-651,057	283,307	-0,036	-0,047
-650,043	-200,000	-0,014	0,049
-649,028	-5,091	-0,039	0,019
-648,014	-72,247	0,027	0,007
-646,999	-155,743	-0,148	-0,007
-645,984	67,238	-0,140	0,105
-644,970	721,137	0,038	0,075
-643,955	85,193	0,045	0,036
-642,941	175,666	-0,073	0,078
-641,926	-17,798	-0,086	0,039
-640,911	94,287	-0,188	0,157
-639,897	-200,000	-0,008	0,073
-638,882	-42,765	-0,028	0,010
-637,868	800,000	0,075	-0,169
-636,853	243,596	-0,068	0,084
-635,838	547,632	0,008	-0,014
-634,824	-69,338	-0,071	-0,020
-633,809	800,000	0,026	-0,079
-632,795	-91,871	-0,157	-0,032
-631,780	-66,819	0,050	-0,014
-630,765	-200,000	-0,016	0,062
-629,751	330,187	-0,030	0,042
-628,736	100,509	-0,053	0,045
-627,722	-62,246	-0,114	0,035
-626,707	800,000	-0,020	0,048
-625,692	-90,809	-0,089	-0,019
-624,678	51,435	0,102	0,071
-623,663	545,994	0,073	0,128
-622,649	-139,393	0,103	0,008
-621,634	344,186	-0,044	-0,064
-620,619	-77,837	-0,096	-0,024
-619,605	-200,000	0,030	0,120
-618,590	-115,740	0,063	0,009
-617,576	-79,197	-0,067	-0,016
-616,561	-94,708	0,066	-0,013
-615,546	800,000	-0,032	0,068
-614,532	57,007	-0,161	-0,115
-613,517	-69,152	-0,089	0,025
-612,503	800,000	0,058	0,118
-611,488	-89,332	0,076	0,016
-610,474	-200,000	0,027	-0,155
-609,459	-200,000	0,027	-0,106
-608,444	-200,000	-0,015	-0,153
-607,430	-17,339	-0,090	-0,042
-606,415	57,500	0,051	-0,036
-605,401	-3,341	0,080	0,041
-604,386	479,593	0,069	0,115
-603,371	-200,000	0,029	-0,131
-602,357	-25,921	-0,075	0,032
-601,342	800,000	-0,042	-0,111
-600,328	-200,000	-0,015	-0,115
-599,313	56,192	-0,043	-0,030
-598,298	-126,715	-0,053	0,006
-597,284	-29,214	0,057	-0,024
-596,269	51,802	0,106	0,074
-595,255	-200,000	-0,008	0,096
-594,240	-200,000	-0,009	0,061
-593,225	-80,585	0,049	-0,012
-592,211	183,270	-0,020	-0,021
-591,196	-157,898	0,079	-0,003
-590,182	-63,697	-0,057	-0,017
-589,167	-113,700	-0,127	0,018
-588,152	-115,006	0,155	0,021
-587,138	-89,881	-0,016	0,003
-586,123	-200,000	0,013	0,059
-585,109	666,257	0,013	-0,026
-584,094	98,099	-0,037	0,031
-583,079	-200,000	-0,019	0,098
-582,065	-200,000	0,004	0,090
-581,050	74,486	0,069	0,053
-580,036	672,209	0,031	0,059
-579,021	-99,805	-0,096	0,017
-578,006	171,223	-0,064	-0,067
-576,992	-132,032	-0,076	-0,007
-575,977	50,443	0,040	0,027
-574,963	-200,000	0,019	-0,088
-573,948	-200,000	-0,008	0,030
-572,934	-46,093	-0,080	0,029
-571,919	0,259	-0,145	-0,075
-570,904	-200,000	-0,017	-0,161
-569,890	-200,000	0,013	-0,054
-568,875	-44,919	0,059	0,021
-567,861	-200,000	0,045	0,221
-566,846	-200,000	0,003	0,098
-565,831	-113,732	0,060	0,008
-564,817	800,000	-0,059	0,154
-563,802	383,541	-0,028	-0,042
-562,788	-104,243	0,062	-0,011
-561,773	-93,380	0,112	0,022
-560,758	-176,212	0,174	-0,003
-559,744	-200,000	0,034	0,168
-558,729	33,960	0,095	0,061
-557,715	-200,000	0,076	0,000
-556,700	201,757	-0,045	0,051
-555,685	-200,000	-0,033	-0,202
-554,671	136,839	-0,084	0,080
-553,656	292,594	0,084	0,113
-552,642	-32,725	0,090	0,036
-551,627	-200,000	0,004	-0,081
-550,612	-200,000	-0,013	0,106
-549,598	10,966	-0,015	0,008
-548,583	-184,579	0,059	-0,001
-547,569	63,987	-0,033	0,024
-546,554	14,264	0,100	0,057
-545,539	-60,518	0,087	0,027
-544,525	-96,326	0,135	0,026
-543,510	-200,000	0,001	-0,107
-542,496	-200,000	-0,013	-0,055
-541,481	-200,000	0,017	-0,064
-540,466	567,560	0,032	0,057
-539,452	5,809	-0,045	-0,024
-538,437	-53,790	-0,126	-0,042
-537,423	286,874	-0,046	-0,061
-536,408	-7,872	-0,034	0,017
-535,393	-64,873	0,048	0,014
-534,379	-200,000	0,022	-0,106
-533,364	295,871	-0,042	0,056
-532,350	62,759	0,100	0,073
-531,335	423,555	0,060	-0,095
-530,321	800,000	-0,042	0,120
-529,306	800,000	0,061	-0,189
-528,291	136,309	-0,115	-0,110
-527,277	15,480	0,065	0,037
-526,262	800,000	-0,055	-0,122
-525,248	85,662	-0,075	-0,061
-524,233	594,882	0,054	0,099
-523,218	800,000	0,043	0,105
-522,204	14,360	-0,066	-0,038
-521,189	329,677	0,017	0,023
-520,175	-112,189	-0,096	-0,014
-519,160	800,000	0,050	0,111
-518,145	-200,000	0,041	0,158
-517,131	-38,059	0,141	0,055
-516,116	800,000	-0,046	-0,122
-515,102	79,413	0,023	-0,018
-514,087	-98,683	-0,024	0,004
-513,072	800,000	-0,049	-0,149
-512,058	-163,401	-0,062	0,002
-511,043	-111,343	0,116	-0,017
-510,029	-82,757	0,132	0,031
-509,014	-200,000	-0,019	-0,238
-507,999	-200,000	-0,005	-0,069
-506,985	-200,000	-0,010	-0,151
-505,970	207,188	-0,097	-0,111
-504,956	800,000	-0,038	-0,079
-503,941	800,000	-0,037	0,082
-502,926	-47,442	0,066	0,023
-501,912	-92,833	-0,154	-0,031
-500,897	800,000	0,035	-0,094
-499,883	-200,000	-0,015	0,093
-498,868	-200,000	0,002	0,010
-497,853	75,337	0,027	-0,021
-496,839	-50,911	0,118	0,040
-495,824	-27,865	0,076	-0,032
-494,810	50,294	0,135	0,093
-493,795	78,378	0,107	-0,084
-492,781	114,332	-0,057	-0,051
-491,766	800,000	-0,054	0,111
-490,751	800,000	-0,035	-0,074
-489,737	150,923	-0,084	-0,083
-488,722	-200,000	0,021	-0,131
-487,708	135,185	0,100	0,095
-486,693	228,912	-0,054	0,064
-485,678	119,376	-0,059	-0,053
-484,664	-22,250	-0,237	-0,104
-483,649	84,848	-0,086	-0,069
-482,635	86,705	0,044	0,036
-481,620	-94,161	0,066	-0,013
-480,605	-200,000	-0,000	-0,159
-479,591	-200,000	-0,002	0,082
-478,576	-130,339	-0,082	0,008
-477,562	721,843	-0,024	-0,047
-476,547	-200,000	-0,012	-0,108
-475,532	-0,006	0,088	-0,046
-474,518	-200,000	-0,004	-0,013
-473,503	7,638	-0,099	-0,054
-472,489	55,370	0,170	-0,120
-471,474	-99,809	-0,100	0,018
-470,459	-106,433	0,114	0,018
-469,445	-200,000	0,003	-0,093
-468,430	800,000	0,021	-0,049
-467,416	80,075	0,121	0,095
-466,401	800,000	0,024	-0,061
-465,386	-51,100	-0,044	-0,015
-464,372	-41,399	0,108	0,040
-463,357	628,252	0,061	0,113
-462,343	93,048	-0,114	-0,094
-461,328	-66,534	-0,119	0,034
-460,313	800,000	0,005	0,015
-459,299	-70,184	0,062	0,017
-458,284	43,245	0,045	0,030
-457,270	97,996	0,091	0,076
-456,255	697,784	-0,065	-0,126
-455,241	-110,247	-0,176	-0,026
-454,226	-200,000	0,002	0,008
-453,211	-85,325	-0,057	0,013
-452,197	-58,945	0,105	-0,033
-451,182	-200,000	0,000	-0,047
-450,168	800,000	0,034	0,087
-449,153	-80,969	-0,185	-0,044
-448,138	741,239	0,084	-0,165
-447,124	613,846	-0,031	0,056
-446,109	594,265	0,066	0,119
-445,095	800,000	-0,062	-0,132
-444,080	299,482	0,057	0,077
-443,065	-200,000	-0,017	0,100
-442,051	-200,000	-0,028	-0,125
-441,036	221,457	0,102	-0,120
-440,022	-200,000	-0,009	-0,064
-439,007	3,939	-0,077	-0,041
-437,992	-200,000	-0,031	0,099
-436,978	164,279	-0,137	-0,141
-435,963	-147,057	-0,125	-0,008
-434,949	264,299	0,046	0,059
-433,934	-200,000	0,007	-0,093
-432,919	265,543	0,019	-0,024
-431,905	-16,131	-0,010	0,005
-430,890	134,556	-0,077	0,072
-429,876	428,803	-0,005	-0,008
-428,861	577,184	-0,042	0,075
-427,846	-200,000	-0,002	-0,105
-426,832	256,622	-0,054	-0,068
-425,817	-58,286	0,060	0,019
-424,803	-200,000	-0,034	-0,186
-423,788	382,448	-0,041	-0,061
-422,773	-200,000	-0,021	-0,082
-421,759	-50,949	0,141	-0,048
-420,744	-85,124	0,061	0,014
-419,730	-104,982	-0,074	0,012
-418,715	800,000	0,024	0,067
-417,701	-200,000	0,003	-0,023
-416,686	-200,000	-0,026	-0,123
-415,671	316,047	-0,038	0,053
-414,657	800,000	0,016	0,039
-413,642	-80,009	0,088	-0,021
-412,628	657,744	-0,029	0,055
-411,613	-135,020	-0,111	-0,010
-410,598	126,468	-0,127	-0,117
-409,584	239,747	0,146	-0,177
-408,569	800,000	-0,039	-0,099
-407,555	471,927	-0,083	-0,136
-406,540	-200,000	0,025	-0,095
-405,525	171,392	0,040	0,042
-404,511	288,179	-0,143	-0,189
-403,496	350,493	-0,086	-0,123
-402,482	-83,634	0,114	-0,026
-401,467	-18,583	0,018	-0,008
-400,452	-200,000	0,004	0,025
-399,438	800,000	0,012	0,038
-398,423	693,747	-0,038	0,073
-397,409	-26,444	-0,215	0,091
-396,394	-200,000	-0,018	-0,111
-395,379	800,000	-0,039	-0,093
-394,365	-133,778	0,051	-0,005
-393,350	800,000	-0,036	0,106
-392,336	-54,511	0,120	0,039
-391,321	-154,050	-0,077	0,004
-390,306	-127,959	-0,077	-0,008
-389,292	-66,028	0,052	-0,015
-388,277	55,903	0,074	-0,052
-387,263	-110,390	0,023	-0,003
-386,248	-113,582	0,167	0,024
-385,233	-200,000	-0,040	0,167
-384,219	-48,186	-0,074	-0,026
-383,204	417,436	-0,057	-0,089
-382,190	-111,153	0,002	-0,000
-381,175	-200,000	-0,019	0,082
-380,160	-83,489	0,131	0,030
-379,146	65,701	-0,108	0,080
-378,131	-120,435	0,042	-0,005
-377,117	126,118	0,101	-0,093
-376,102	-120,622	0,071	-0,009
-375,088	76,502	-0,059	0,045
-374,073	-45,439	-0,061	0,022
-373,058	29,020	0,134	0,082
-372,044	-200,000	0,026	0,083
-371,029	800,000	0,017	0,043
-370,015	264,626	-0,068	0,086
-369,000	-200,000	-0,001	-0,014
-367,985	164,738	-0,067	0,069
-366,971	592,204	-0,027	0,049
-365,956	800,000	0,025	-0,055
-364,942	422,611	0,075	0,118
-363,927	413,335	0,090	0,139
-362,912	-200,000	-0,010	-0,089
-361,898	-64,295	-0,064	-0,019
-360,883	-119,541	0,144	0,018
-359,869	-200,000	-0,002	-0,032
-358,854	-110,881	-0,078	0,012
-357,839	-59,322	0,111	0,034
-356,825	420,931	0,120	0,187
-355,810	800,000	-0,021	0,059
-354,796	282,226	-0,074	-0,097
-353,781	-110,436	-0,179	0,027
-352,766	-0,279	-0,133	0,068
-351,752	800,000	0,066	0,149
-350,737	334,069	-0,018	0,026
-349,723	-132,345	0,190	0,018
-348,708	-11,702	-0,108	-0,051
-347,693	485,209	-0,023	-0,037
-346,679	6,422	0,058	0,031
-345,664	-26,235	-0,051	-0,022
-344,650	-200,000	-0,008	-0,101
-343,635	453,192	0,072	0,117
-342,620	-160,174	-0,093	-0,004
-341,606	800,000	0,022	0,046
-340,591	-200,000	-0,007	-0,072
-339,577	128,890	-0,114	-0,105
-338,562	550,676	-0,062	-0,108
-337,548	-36,037	0,121	-0,047
-336,533	40,142	0,089	0,058
-335,518	800,000	0,085	0,264
-334,504	18,886	-0,018	0,010
-333,489	95,659	-0,045	-0,037
-332,475	-3,563	-0,032	0,016
-331,460	790,130	0,072	-0,145
-330,445	-200,000	0,006	-0,055
-329,431	654,115	0,052	0,097
-328,416	13,451	0,163	0,092
-327,402	-93,131	0,070	-0,014
-326,387	43,188	-0,034	0,023
-325,372	-65,016	0,114	-0,033
-324,358	-38,001	-0,126	0,048
-323,343	554,183	0,029	-0,051
-322,329	-75,911	0,073	0,019
-321,314	64,829	0,140	0,102
-320,299	421,521	0,033	-0,052
-319,285	-188,790	-0,109	0,001
-318,270	10,889	-0,078	0,043
-317,256	464,871	-0,014	0,023
-316,241	393,352	-0,019	-0,029
-315,226	-200,000	-0,003	0,024
-314,212	800,000	0,104	0,230
-313,197	-104,158	0,151	-0,025
-312,183	-200,000	-0,005	0,081
-311,168	102,123	-0,112	0,095
-310,153	-14,539	-0,037	0,017
-309,139	-200,000	-0,007	-0,024
-308,124	12,473	-0,072	0,040
-307,110	-126,510	-0,053	-0,006
-306,095	-63,135	0,176	-0,052
-305,080	-119,710	0,133	0,016
-304,066	-200,000	0,016	-0,055
-303,051	800,000	0,022	0,067
-302,037	323,956	-0,070	0,096
-301,022	-123,337	-0,056	0,006
-300,008	-164,326	-0,017	-0,001
-298,993	-108,009	0,091	0,014
-297,978	-61,327	0,056	0,017
-296,964	307,775	-0,028	0,038
-295,949	-105,767	0,069	-0,011
-294,935	-9,124	-0,073	-0,035
-293,920	-46,177	-0,093	-0,033
-292,905	-200,000	0,003	-0,131
-291,891	-200,000	-0,037	0,220
-290,876	800,000	0,066	0,141
-289,862	-123,945	0,040	-0,004
-288,847	123,335	-0,023	0,021
-287,832	-200,000	0,025	-0,122
-286,818	-61,631	-0,057	-0,017
-285,803	-200,000	0,029	0,155
-284,789	545,347	0,061	0,105
-283,774	377,665	-0,091	-0,135
-282,759	260,927	0,002	0,003
-281,745	-92,469	0,084	0,017
-280,730	61,927	0,026	0,019
-279,716	-200,000	0,011	0,112
-278,701	214,682	0,005	0,005
-277,686	-141,540	-0,033	-0,002
-276,672	-132,392	-0,075	0,007
-275,657	800,000	0,020	-0,049
-274,643	-88,643	-0,076	-0,016
-273,628	10,082	-0,211	-0,115
-272,613	-200,000	-0,010	-0,115
-271,599	90,212	0,036	0,029
-270,584	800,000	0,027	-0,058
-269,570	-165,938	0,051	-0,002
-268,555	9,682	-0,039	0,021
-267,540	800,000	0,048	-0,096
-266,526	-52,276	0,147	0,049
-265,511	-200,000	-0,029	-0,111
-264,497	800,000	-0,007	-0,022
-263,482	39,048	-0,050	0,032
-262,467	-18,697	0,092	0,041
-261,453	800,000	-0,022	-0,067
-260,438	-2,029	-0,096	0,049
-259,424	-109,955	-0,107	-0,016
-258,409	205,003	-0,043	0,049
-257,395	474,913	0,084	0,138
-256,380	-104,722	0,117	0,019
-255,365	800,000	-0,037	-0,115
-254,351	-26,943	0,090	-0,038
-253,336	219,167	0,085	0,099
-252,322	-82,471	-0,104	-0,024
-251,307	204,767	-0,050	-0,056
-250,292	357,058	0,054	-0,078
-249,278	-17,980	-0,016	0,007
-248,263	-28,648	0,051	-0,021
-247,249	800,000	0,038	0,091
-246,234	90,169	-0,052	0,042
-245,219	800,000	-0,081	-0,174
-244,205	293,959	-0,026	-0,034
-243,190	675,024	-0,056	0,106
-242,176	169,266	-0,076	0,079
-241,161	800,000	0,029	0,085
-240,146	800,000	-0,025	0,066
-239,132	-200,000	0,002	-0,056
-238,117	-200,000	0,007	-0,168
-237,103	-106,090	-0,059	0,009
-236,088	-160,107	0,048	-0,002
-235,073	-95,423	0,223	0,043
-234,059	146,161	0,087	-0,084
-233,044	-169,591	-0,114	-0,003
-232,030	43,135	0,053	0,035
-231,015	3,617	-0,123	-0,064
-230,000	-200,000	0,001	-0,096
-228,986	337,309	-0,071	0,100
-227,971	-120,055	-0,130	-0,016
-226,957	-92,283	0,043	0,009
-225,942	100,084	-0,111	0,093
-224,927	11,177	0,039	0,021
-223,913	182,232	0,099	-0,105
-222,898	-143,130	-0,145	-0,010
-221,884	10,356	0,066	-0,036
-220,869	493,840	0,017	-0,028
-219,855	-200,000	-0,003	0,046
-218,840	-36,092	0,092	0,036
-217,825	463,292	0,039	-0,064
-216,811	293,364	-0,044	0,059
-215,796	-5,880	-0,081	0,040
-214,782	260,831	0,042	-0,052
-213,767	-200,000	0,018	0,118
-212,752	114,998	0,070	0,062
-211,738	-138,567	-0,064	-0,005
-210,723	-67,889	0,048	-0,013
-209,709	329,845	-0,112	-0,156
-208,694	-200,000	-0,018	-0,082
-207,679	-17,137	0,180	0,082
-206,665	800,000	-0,014	0,037
-205,650	94,192	0,105	0,086
-204,636	226,662	0,013	0,015
-203,621	-140,678	0,074	0,005
-202,606	-2,164	0,092	0,046
-201,592	-200,000	0,005	-0,059
-200,577	512,998	-0,037	0,063
-199,563	800,000	0,011	0,025
-198,548	206,760	0,023	0,026
-197,533	-51,626	-0,088	-0,030
-196,519	46,455	-0,060	0,040
-195,504	101,812	0,140	-0,117
-194,490	644,147	-0,043	-0,080
-193,475	-195,847	0,136	-0,001
-192,460	11,181	-0,078	0,043
-191,446	536,825	0,016	0,028
-190,431	516,663	0,063	0,107
-189,417	558,464	-0,041	0,072
-188,402	31,602	-0,006	0,004
-187,387	187,131	0,068	-0,073
-186,373	-77,245	-0,057	0,014
-185,358	3,212	0,073	0,038
-184,344	-200,000	0,003	-0,038
-183,329	-200,000	-0,004	-0,065
-182,315	-85,894	-0,098	-0,022
-181,300	-16,277	0,017	0,008
-180,285	-98,473	-0,136	0,025
-179,271	-98,570	-0,109	-0,020
-178,256	-94,874	0,016	-0,003
-177,242	-88,280	0,073	-0,016
-176,227	-129,743	0,109	0,011
-175,212	-200,000	-0,004	-0,182
-174,198	-156,600	0,153	-0,007
-173,183	-73,180	-0,071	0,019
-172,169	94,399	0,067	-0,055
-171,154	636,371	-0,043	0,078
-170,139	39,280	0,020	-0,013
-169,125	424,976	0,064	-0,099
-168,110	-53,423	0,088	0,029
-167,096	40,252	-0,025	-0,016
-166,081	800,000	0,073	0,152
-165,066	285,558	-0,074	0,097
-164,052	293,199	0,051	0,067
-163,037	-35,565	0,094	-0,037
-162,023	-200,000	-0,002	0,047
-161,008	215,861	0,027	-0,030
-159,993	-78,408	-0,044	-0,011
-158,979	-76,429	-0,149	0,038
-157,964	7,942	-0,102	-0,055
-156,950	-45,482	-0,108	-0,038
-155,935	-200,000	-0,032	0,134
-154,920	-159,377	-0,006	-0,000
-153,906	133,421	0,040	0,037
-152,891	800,000	0,006	0,017
-151,877	-18,653	0,029	-0,013
-150,862	800,000	-0,029	-0,079
-149,847	-200,000	-0,009	-0,036
-148,833	75,888	-0,042	0,032
-147,818	-82,591	0,125	-0,029
-146,804	-104,413	0,120	0,020
-145,789	557,072	-0,074	0,129
-144,775	800,000	-0,046	0,112
-143,760	-141,544	0,066	0,005
-142,745	-200,000	0,002	0,048
-141,731	-80,006	0,027	-0,006
-140,716	236,723	0,052	-0,062
-139,702	-200,000	0,024	0,109
-138,687	622,603	0,040	0,073
-137,672	-37,458	0,057	-0,022
-136,658	-102,373	0,044	-0,008
-135,643	-200,000	0,012	-0,041
-134,629	-123,078	-0,149	-0,017
-133,614	-40,587	0,065	0,024
-132,599	-44,216	0,130	0,047
-131,585	57,209	-0,172	-0,121
-130,570	-200,000	-0,031	-0,139
-129,556	325,609	-0,053	0,074
-128,541	-138,484	-0,097	0,008
-127,526	39,415	0,048	-0,031
-126,512	-65,405	0,126	-0,036
-125,497	123,546	-0,110	-0,100
-124,483	-95,251	0,070	-0,013
-123,468	800,000	0,023	0,054
-122,453	95,273	-0,097	-0,079
-121,439	-74,630	-0,171	-0,044
-120,424	216,364	0,085	-0,097
-119,410	93,411	-0,034	-0,028
