DTS Sentinel unit serial number:	SN410029Multiplexer serial number:	ORYXHardware model number:	OX2-SRSoftware version number:	ORYX F/W v4,00 Oryx Data Collector v3.7.2.0data status	okinstallation	B6 Nyhavnadifferential loss correction	single-endedforward channel	channel 2reverse channel	N/Adate	2023/12/11time	00:30:08forward acquisition time	300,00reverse acquisition time	0,00gamma	499,1914k internal	0,3122k external	0,3122temperature offset calibration	1,0000default loss term (dB/km)	0,3820temperature slope calibration	1,0000multiplexer offset coefficient	1,0000multiplexer slope coefficient	1,0000fibre end	0,00T internal ref (°C)	22,32T ext. ref 1 (°C)	5,80T ext. ref 2 (°C)	5,84length (m)	temperature (°C)	Stokes	anti-Stokes-744,400	800,000	-0,014	0,032
-743,385	73,484	-0,197	0,153
-742,371	800,000	-0,040	-0,110
-741,356	-35,432	-0,194	0,078
-740,342	4,748	0,078	0,042
-739,327	-70,746	-0,151	0,042
-738,312	670,469	0,034	-0,066
-737,298	-51,061	-0,247	-0,086
-736,283	109,576	0,075	-0,067
-735,269	143,356	-0,222	0,220
-734,254	127,418	-0,123	-0,117
-733,239	-129,289	-0,411	-0,042
-732,225	68,252	0,086	-0,065
-731,210	800,000	0,058	0,149
-730,196	-92,956	0,050	0,010
-729,181	180,531	-0,076	-0,084
-728,167	-200,000	0,016	0,054
-727,152	-200,000	0,008	0,033
-726,137	-54,172	-0,081	0,027
-725,123	236,848	0,047	0,058
-724,108	800,000	0,058	-0,143
-723,094	-200,000	-0,017	-0,075
-722,079	0,194	-0,046	-0,025
-721,064	-71,802	-0,103	0,028
-720,050	183,205	0,089	0,098
-719,035	115,208	0,016	0,014
-718,021	10,361	0,019	-0,011
-717,006	-86,310	-0,082	0,019
-715,991	-85,336	-0,220	-0,051
-714,977	192,641	0,061	-0,069
-713,962	158,313	-0,020	0,021
-712,948	-127,798	-0,076	-0,008
-711,933	28,880	0,074	-0,046
-710,918	800,000	-0,032	0,092
-709,904	800,000	-0,012	-0,035
-708,889	333,640	-0,092	-0,133
-707,875	-200,000	-0,005	0,017
-706,860	3,497	-0,023	-0,012
-705,845	-61,983	0,120	-0,037
-704,831	-200,000	0,008	0,045
-703,816	171,004	-0,064	0,068
-702,802	767,309	0,055	-0,112
-701,787	481,401	-0,052	-0,088
-700,772	690,095	0,065	-0,126
-699,758	800,000	-0,042	-0,099
-698,743	-162,400	0,044	0,002
-697,729	-200,000	-0,007	-0,025
-696,714	-153,489	-0,050	0,003
-695,699	800,000	-0,004	0,009
-694,685	-82,099	-0,017	-0,004
-693,670	-91,544	-0,110	0,023
-692,656	-129,354	-0,119	0,012
-691,641	250,745	0,056	-0,071
-690,627	705,977	0,032	0,064
-689,612	-200,000	-0,002	-0,164
-688,597	131,135	-0,080	0,076
-687,583	-200,000	0,003	-0,087
-686,568	-20,884	-0,074	0,034
-685,554	-200,000	0,025	-0,087
-684,539	-200,000	-0,006	-0,029
-683,524	708,293	0,043	0,086
-682,510	-200,000	0,027	0,128
-681,495	-0,312	-0,163	0,086
-680,481	148,217	-0,122	-0,122
-679,466	-46,367	-0,194	-0,071
-678,451	-105,561	-0,124	0,021
-677,437	7,822	0,057	0,031
-676,422	-134,006	0,142	0,013
-675,408	800,000	-0,018	0,053
-674,393	260,674	-0,017	0,022
-673,378	-139,926	-0,106	-0,008
-672,364	800,000	-0,013	-0,038
-671,349	166,689	-0,084	-0,089
-670,335	-124,602	-0,090	0,010
-669,320	49,911	0,083	-0,058
-668,305	-124,566	-0,022	0,003
-667,291	-200,000	0,016	0,063
-666,276	800,000	-0,048	-0,108
-665,262	-54,035	0,064	-0,022
-664,247	266,856	-0,080	0,104
-663,232	-38,687	-0,098	0,038
-662,218	-106,697	0,114	-0,019
-661,203	80,073	0,052	-0,041
-660,189	-35,943	-0,143	0,057
-659,174	-200,000	0,001	-0,107
-658,159	-69,136	-0,018	-0,005
-657,145	0,987	0,027	0,014
-656,130	800,000	-0,036	0,105
-655,116	-200,000	0,005	-0,028
-654,101	-200,000	-0,010	-0,034
-653,086	-200,000	0,024	-0,136
-652,072	-22,955	0,063	-0,028
-651,057	245,875	-0,070	-0,088
-650,043	-200,000	0,050	-0,181
-649,028	-200,000	-0,037	-0,143
-648,014	515,567	0,041	0,071
-646,999	-20,266	0,130	-0,059
-645,984	-200,000	0,014	-0,093
-644,970	65,570	0,043	0,033
-643,955	800,000	-0,040	0,085
-642,941	92,498	-0,028	0,024
-641,926	-200,000	0,008	-0,033
-640,911	-35,814	0,191	-0,076
-639,897	-200,000	0,007	0,112
-638,882	92,430	0,072	0,060
-637,868	756,745	-0,005	-0,011
-636,853	-200,000	-0,012	-0,067
-635,838	-200,000	-0,007	-0,063
-634,824	584,958	-0,050	0,092
-633,809	800,000	0,028	-0,083
-632,795	175,611	0,030	-0,032
-631,780	398,393	-0,080	-0,124
-630,765	140,635	-0,096	-0,094
-629,751	-189,969	-0,031	-0,000
-628,736	800,000	0,056	0,124
-627,722	46,829	-0,060	0,041
-626,707	-109,602	-0,085	-0,013
-625,692	4,287	0,062	0,034
-624,678	-200,000	-0,027	-0,197
-623,663	-160,189	0,048	0,002
-622,649	-200,000	0,023	-0,086
-621,634	-200,000	-0,022	-0,075
-620,619	800,000	0,032	0,069
-619,605	15,476	-0,030	-0,017
-618,590	-29,678	0,155	0,065
-617,576	-200,000	-0,010	0,056
-616,561	499,120	0,057	-0,098
-615,546	-200,000	0,004	-0,087
-614,532	-200,000	-0,057	-0,202
-613,517	-138,281	-0,139	-0,011
-612,503	61,868	-0,159	-0,118
-611,488	664,625	0,031	0,060
-610,474	41,444	0,079	-0,053
-609,459	223,765	-0,043	0,052
-608,444	789,032	0,027	-0,056
-607,430	-9,900	-0,224	-0,110
-606,415	-121,884	0,008	-0,001
-605,401	-25,054	-0,064	0,028
-604,386	-200,000	0,005	0,021
-603,371	-51,488	0,085	0,029
-602,357	126,861	-0,034	0,032
-601,342	58,264	0,103	0,074
-600,328	-79,918	0,061	-0,015
-599,313	-200,000	-0,009	-0,215
-598,298	130,028	0,036	0,035
-597,284	124,077	0,067	-0,063
-596,269	-200,000	0,014	0,098
-595,255	-86,423	0,041	-0,009
-594,240	98,515	-0,086	-0,073
-593,225	-4,754	0,115	0,058
-592,211	139,146	0,063	-0,061
-591,196	-200,000	-0,027	-0,114
-590,182	87,144	0,034	-0,028
-589,167	-64,144	-0,137	0,041
-588,152	-91,691	-0,035	0,007
-587,138	800,000	-0,041	-0,104
-586,123	-192,658	-0,059	0,000
-585,109	277,239	0,048	0,064
-584,094	347,492	0,067	-0,098
-583,079	114,819	0,058	0,053
-582,065	157,008	0,085	0,087
-581,050	-54,546	0,027	0,009
-580,036	335,708	0,049	0,070
-579,021	306,023	-0,017	-0,024
-578,006	-0,715	0,087	-0,046
-576,992	540,593	0,052	-0,091
-575,977	-36,319	-0,072	0,029
-574,963	-186,229	0,035	-0,000
-573,948	132,666	0,076	0,073
-572,934	-161,508	0,117	0,004
-571,919	435,754	0,017	-0,028
-570,904	134,598	0,026	0,025
-569,890	416,549	0,084	0,134
-568,875	800,000	-0,030	0,072
-567,861	-135,554	-0,034	-0,003
-566,846	432,621	-0,042	0,068
-565,831	388,484	0,046	0,070
-564,817	276,208	0,022	0,029
-563,802	-154,793	-0,093	-0,004
-562,788	-200,000	-0,002	-0,090
-561,773	-38,147	-0,130	0,051
-560,758	-140,647	0,058	0,004
-559,744	-200,000	-0,009	0,059
-558,729	58,916	0,055	-0,040
-557,715	499,417	-0,029	-0,049
-556,700	42,576	-0,071	-0,048
-555,685	773,041	0,026	-0,053
-554,671	-43,428	-0,067	0,025
-553,656	-82,886	0,065	0,016
-552,642	377,869	-0,050	0,075
-551,627	-62,682	-0,103	0,031
-550,612	420,983	0,030	0,048
-549,598	104,143	0,026	-0,023
-548,583	268,526	-0,039	0,051
-547,569	453,451	0,088	-0,144
-546,554	800,000	0,046	0,129
-545,539	673,809	-0,082	0,157
-544,525	47,072	-0,076	0,052
-543,510	-158,416	0,076	0,003
-542,496	800,000	-0,045	0,111
-541,481	800,000	0,039	-0,122
-540,466	180,419	-0,076	0,083
-539,452	-0,252	-0,048	-0,025
-538,437	91,553	-0,009	0,008
-537,423	121,677	0,145	0,134
-536,408	21,427	0,049	0,029
-535,393	-90,944	-0,181	-0,038
-534,379	-200,000	0,015	-0,067
-533,364	-55,559	-0,163	-0,054
-532,350	-200,000	0,009	0,035
-531,335	-102,051	0,110	-0,019
-530,321	235,198	-0,042	-0,051
-529,306	431,044	0,036	-0,058
-528,291	232,652	-0,067	0,082
-527,277	800,000	-0,014	-0,031
-526,262	-200,000	-0,007	0,055
-525,248	-200,000	0,014	0,057
-524,233	-30,822	-0,100	0,042
-523,218	524,713	0,084	0,147
-522,204	631,216	-0,040	-0,076
-521,189	255,771	0,035	0,045
-520,175	-200,000	-0,006	0,206
-519,160	44,037	-0,093	0,063
-518,145	-200,000	-0,006	0,103
-517,131	-92,412	-0,041	-0,008
-516,116	-65,928	0,126	-0,037
-515,102	441,727	0,014	-0,022
-514,087	-106,789	-0,075	-0,012
-513,072	12,427	-0,068	-0,038
-512,058	379,188	0,052	-0,079
-511,043	2,827	0,051	0,027
-510,029	-171,995	0,071	-0,002
-509,014	-200,000	0,024	-0,137
-507,999	-93,938	-0,060	-0,012
-506,985	-200,000	-0,001	0,026
-505,970	264,608	-0,024	-0,031
-504,956	-200,000	0,012	0,050
-503,941	-56,394	0,028	-0,009
-502,926	39,253	0,170	0,112
-501,912	-79,934	0,082	-0,020
-500,897	41,814	0,110	-0,073
-499,883	-49,774	0,120	-0,042
-498,868	800,000	0,032	-0,084
-497,853	-200,000	-0,016	-0,061
-496,839	-119,748	-0,038	0,005
-495,824	-200,000	0,001	-0,036
-494,810	222,812	0,120	-0,143
-493,795	-81,995	-0,040	0,010
-492,781	140,167	-0,083	0,081
-491,766	31,273	-0,149	0,095
-490,751	333,627	-0,039	0,055
-489,737	-64,475	0,100	-0,030
-488,722	800,000	0,009	-0,025
-487,708	435,088	-0,027	0,043
-486,693	-200,000	-0,028	0,172
-485,678	118,295	0,026	0,023
-484,664	-200,000	-0,006	-0,121
-483,649	283,746	-0,029	-0,039
-482,635	186,168	-0,077	-0,085
-481,620	-200,000	-0,003	0,061
-480,605	-200,000	-0,030	0,146
-479,591	-200,000	-0,037	0,198
-478,576	73,451	0,045	0,034
-477,562	-200,000	-0,004	0,086
-476,547	-24,842	-0,041	-0,018
-475,532	800,000	0,035	-0,089
-474,518	205,936	-0,083	0,096
-473,503	331,373	0,021	0,031
-472,489	181,124	0,034	-0,036
-471,474	61,079	-0,037	-0,027
-470,459	800,000	-0,039	-0,108
-469,445	-68,214	-0,102	0,029
-468,430	236,820	0,036	0,044
-467,416	-200,000	0,003	-0,048
-466,401	-32,348	0,136	-0,056
-465,386	-200,000	0,013	0,072
-464,372	273,277	-0,095	0,124
-463,357	-59,069	-0,040	-0,013
-462,343	-200,000	-0,030	-0,134
-461,328	800,000	-0,027	-0,085
-460,313	800,000	0,026	-0,065
-459,299	-200,000	0,015	0,092
-458,284	434,417	-0,072	0,116
-457,270	172,304	0,041	-0,044
-456,255	-200,000	-0,002	-0,077
-455,241	-145,194	-0,074	-0,005
-454,226	147,192	0,047	0,047
-453,211	-134,133	-0,200	-0,018
-452,197	-91,197	0,083	0,017
-451,182	-11,253	0,057	-0,028
-450,168	-92,135	0,130	-0,027
-449,153	-1,645	0,073	-0,038
-448,138	126,769	-0,062	-0,058
-447,124	105,187	-0,116	0,101
-446,109	-19,683	0,121	0,055
-445,095	70,640	-0,120	0,092
-444,080	74,385	-0,123	0,095
-443,065	86,824	0,075	0,061
-442,051	15,276	-0,102	0,059
-441,036	-200,000	-0,007	0,051
-440,022	92,076	-0,046	-0,038
-439,007	-200,000	0,004	-0,021
-437,992	800,000	-0,024	-0,074
-436,978	237,862	0,098	0,120
-435,963	485,267	0,097	0,163
-434,949	-200,000	-0,006	0,097
-433,934	-118,776	-0,120	0,015
-432,919	800,000	0,015	0,031
-431,905	-36,669	0,006	-0,002
-430,890	-105,270	0,143	0,024
-429,876	583,693	0,019	0,034
-428,861	800,000	0,064	0,198
-427,846	45,824	-0,163	0,111
-426,832	-200,000	-0,000	0,041
-425,817	-151,568	0,130	0,007
-424,803	-200,000	0,031	-0,109
-423,788	38,392	-0,072	-0,047
-422,773	800,000	0,021	0,045
-421,759	800,000	-0,066	0,166
-420,744	-15,651	0,171	0,080
-419,730	-70,596	-0,164	-0,045
-418,715	800,000	-0,044	-0,139
-417,701	-15,943	0,137	-0,064
-416,686	74,613	-0,127	0,098
-415,671	800,000	-0,006	0,014
-414,657	800,000	-0,050	0,135
-413,642	-121,100	-0,027	-0,003
-412,628	-90,736	-0,168	-0,035
-411,613	92,293	-0,092	-0,076
-410,598	-200,000	0,000	-0,074
-409,584	294,937	0,028	0,038
-408,569	-200,000	0,015	0,071
-407,555	800,000	-0,015	0,042
-406,540	253,504	0,033	-0,041
-405,525	281,134	-0,014	0,019
-404,511	-101,198	-0,056	-0,010
-403,496	-90,556	0,004	-0,001
-402,482	469,912	0,062	0,102
-401,467	19,627	0,076	0,045
-400,452	49,599	-0,110	-0,076
-399,438	-125,006	-0,060	0,007
-398,423	-133,073	-0,136	-0,013
-397,409	-200,000	0,015	0,067
-396,394	-200,000	0,011	-0,069
-395,379	753,760	0,052	-0,104
-394,365	129,224	0,077	0,072
-393,350	-11,998	-0,060	0,029
-392,336	800,000	-0,027	0,064
-391,321	-62,177	0,165	-0,050
-390,306	198,029	-0,056	-0,063
-389,292	-82,156	-0,091	-0,022
-388,277	271,959	-0,053	-0,069
-387,263	-106,035	0,027	-0,004
-386,248	-65,614	0,152	-0,045
-385,233	-57,572	0,176	0,057
-384,219	-200,000	0,018	-0,059
-383,204	153,635	0,090	-0,090
-382,190	-133,991	-0,030	0,003
-381,175	-115,929	0,070	0,009
-380,160	142,649	-0,022	0,021
-379,146	-7,927	0,080	0,040
-378,131	-200,000	0,032	0,126
-377,117	-200,000	-0,033	0,195
-376,102	27,574	-0,083	0,051
-375,088	-174,792	-0,071	-0,001
-374,073	285,651	0,103	0,137
-373,058	-200,000	-0,013	0,140
-372,044	-160,817	0,080	-0,003
-371,029	-100,164	0,017	-0,003
-370,015	30,838	0,096	0,060
-369,000	800,000	-0,030	-0,065
-367,985	13,704	0,088	-0,050
-366,971	71,035	0,056	-0,042
-365,956	-200,000	0,012	0,050
-364,942	800,000	0,043	0,116
-363,927	74,228	0,070	0,054
-362,912	763,949	0,025	0,051
-361,898	21,916	-0,133	0,079
-360,883	-135,962	-0,151	-0,013
-359,869	756,443	0,041	0,081
-358,854	-125,280	0,233	0,026
-357,839	800,000	-0,049	0,106
-356,825	-76,757	0,121	-0,031
-355,810	800,000	0,045	-0,099
-354,796	-20,069	0,056	-0,025
-353,781	-88,990	-0,111	-0,024
-352,766	160,952	0,035	-0,036
-351,752	115,710	-0,135	-0,121
-350,737	-28,436	-0,061	0,026
-349,723	165,984	0,128	0,133
-348,708	-22,586	-0,098	-0,044
-347,693	800,000	0,059	0,136
-346,679	-200,000	0,009	0,050
-345,664	-146,256	-0,026	-0,002
-344,650	486,151	0,042	-0,071
-343,635	449,906	0,081	0,132
-342,620	322,354	-0,051	-0,071
-341,606	-200,000	0,024	0,176
-340,591	404,026	-0,043	0,067
-339,577	183,616	-0,033	-0,035
-338,562	-43,680	-0,048	0,018
-337,548	451,295	-0,016	0,027
-336,533	643,805	0,032	0,061
-335,518	-132,832	0,101	0,009
-334,504	562,916	0,023	0,042
-333,489	637,702	-0,015	-0,029
-332,475	-88,104	-0,036	-0,008
-331,460	-149,755	-0,033	-0,002
-330,445	366,702	-0,059	0,088
-329,431	-24,042	0,076	0,033
-328,416	299,241	0,087	0,118
-327,402	-90,835	-0,059	0,012
-326,387	-200,000	0,015	0,172
-325,372	800,000	0,038	-0,086
-324,358	24,253	-0,076	-0,046
-323,343	92,367	-0,088	-0,072
-322,329	152,229	-0,023	0,023
-321,314	-62,663	0,044	-0,013
-320,299	-77,524	-0,179	0,045
-319,285	415,475	0,084	-0,132
-318,270	340,610	-0,044	0,063
-317,256	30,580	0,070	-0,044
-316,241	-88,026	-0,065	-0,014
-315,226	141,215	0,097	-0,095
-314,212	366,747	-0,013	-0,020
-313,197	12,383	0,053	-0,030
-312,183	229,887	-0,063	0,075
-311,168	800,000	-0,049	0,156
-310,153	-96,306	-0,086	0,017
-309,139	411,625	-0,088	-0,137
-308,124	124,703	-0,121	-0,111
-307,110	54,345	0,135	0,095
-306,095	-33,350	-0,021	0,008
-305,080	800,000	0,049	0,140
-304,066	-30,168	-0,126	0,052
-303,051	-200,000	0,043	-0,141
-302,037	800,000	0,060	-0,127
-301,022	-158,026	0,088	0,004
-300,008	215,186	-0,072	-0,084
-298,993	-57,758	-0,055	-0,017
-297,978	-200,000	0,006	0,101
-296,964	178,888	0,015	0,016
-295,949	-31,339	-0,113	-0,046
-294,935	-200,000	0,009	-0,073
-293,920	591,446	-0,041	0,075
-292,905	-19,331	-0,052	-0,023
-291,891	-200,000	-0,003	0,070
-290,876	-79,727	0,060	0,015
-289,862	-200,000	0,008	0,063
-288,847	800,000	0,006	-0,018
-287,832	16,978	-0,141	-0,081
-286,818	-52,937	-0,052	0,017
-285,803	-200,000	-0,004	-0,020
-284,789	-96,129	0,144	-0,028
-283,774	800,000	0,016	-0,044
-282,759	52,017	-0,074	0,051
-281,745	250,132	0,045	-0,056
-280,730	800,000	-0,011	-0,033
-279,716	-41,420	-0,072	-0,027
-278,701	116,647	0,141	-0,126
-277,686	-200,000	0,002	-0,092
-276,672	79,213	0,022	-0,017
-275,657	-25,285	0,008	-0,003
-274,643	800,000	0,017	-0,042
-273,628	-54,950	-0,076	-0,025
-272,613	218,126	0,027	0,031
-271,599	-121,535	0,159	-0,019
-270,584	-200,000	0,005	0,114
-269,570	-20,266	0,052	-0,023
-268,555	523,365	-0,035	-0,061
-267,540	68,033	-0,018	-0,013
-266,526	-200,000	-0,006	-0,143
-265,511	-200,000	0,026	-0,099
-264,497	-76,231	-0,032	0,008
-263,482	243,891	0,043	0,054
-262,467	-200,000	0,024	0,125
-261,453	-200,000	0,015	0,119
-260,438	115,609	-0,089	0,079
-259,424	782,531	0,055	-0,110
-258,409	-200,000	-0,018	-0,080
-257,395	-60,153	0,083	0,026
-256,380	800,000	-0,063	-0,196
-255,365	800,000	0,031	0,073
-254,351	-39,477	0,039	0,015
-253,336	-200,000	0,019	-0,097
-252,322	-200,000	-0,001	-0,122
-251,307	-154,477	-0,102	-0,005
-250,292	79,154	0,032	0,025
-249,278	-146,770	-0,065	-0,004
-248,263	532,825	0,031	-0,053
-247,249	62,723	0,107	0,078
-246,234	-71,973	-0,050	-0,014
-245,219	-73,226	-0,102	-0,027
-244,205	-45,377	0,053	0,019
-243,190	-111,960	-0,033	-0,005
-242,176	244,405	0,009	-0,011
-241,161	-200,000	0,015	0,092
-240,146	-32,907	-0,081	0,033
-239,132	-65,321	-0,125	-0,036
-238,117	-126,216	-0,077	-0,008
-237,103	132,671	0,024	-0,022
-236,088	158,915	0,062	-0,063
-235,073	-11,558	0,057	0,027
-234,059	119,773	0,061	0,055
-233,044	800,000	-0,016	-0,050
-232,030	-39,938	0,094	-0,036
-231,015	48,044	-0,104	-0,071
-230,000	800,000	0,091	-0,209
-228,986	-105,878	-0,045	0,007
-227,971	37,803	0,094	-0,061
-226,957	-179,302	0,107	0,002
-225,942	369,146	0,049	0,073
-224,927	57,734	-0,141	0,101
-223,913	-200,000	0,001	-0,095
-222,898	45,932	0,058	0,039
-221,884	-200,000	-0,026	-0,176
-220,869	-200,000	-0,014	-0,105
-219,855	313,664	-0,045	-0,063
-218,840	-200,000	0,007	0,106
-217,825	-122,019	-0,049	0,006
-216,811	-77,521	-0,041	0,010
-215,796	800,000	-0,050	-0,109
-214,782	-200,000	-0,012	0,085
-213,767	15,237	0,048	-0,027
-212,752	-45,026	0,113	-0,041
-211,738	-200,000	-0,009	-0,087
-210,723	-113,063	-0,072	0,010
-209,709	-200,000	-0,026	-0,104
-208,694	94,549	0,010	0,008
-207,679	-98,902	-0,023	-0,004
-206,665	-200,000	-0,014	-0,163
-205,650	-200,000	0,022	0,099
-204,636	18,164	0,123	-0,072
-203,621	208,863	0,039	-0,045
-202,606	-149,073	-0,061	0,004
-201,592	800,000	-0,028	-0,072
-200,577	-200,000	-0,009	-0,064
-199,563	-200,000	-0,001	0,005
-198,548	476,487	-0,097	0,161
-197,533	-143,916	-0,083	-0,006
-196,519	-200,000	0,001	-0,077
-195,504	336,012	-0,104	-0,148
-194,490	-164,796	0,150	0,005
-193,475	-135,418	-0,156	-0,013
-192,460	-200,000	-0,001	-0,062
-191,446	800,000	0,050	0,109
-190,431	4,491	0,078	0,041
-189,417	589,259	0,030	-0,055
-188,402	800,000	0,041	-0,130
-187,387	48,207	-0,033	-0,023
-186,373	800,000	0,028	0,087
-185,358	-200,000	-0,006	-0,039
-184,344	255,460	0,052	0,065
-183,329	-45,671	-0,052	0,019
-182,315	-75,545	-0,029	0,008
-181,300	-13,829	-0,034	0,016
-180,285	31,673	-0,052	-0,033
-179,271	-158,049	-0,086	-0,004
-178,256	-104,063	0,093	0,016
-177,242	-138,277	0,043	0,003
-176,227	-73,960	0,112	0,029
-175,212	-160,174	-0,052	0,002
-174,198	-48,988	-0,037	0,013
-173,183	-164,061	0,138	-0,005
-172,169	62,281	-0,056	-0,041
-171,154	-160,026	0,114	-0,004
-170,139	-77,041	0,028	0,007
-169,125	-39,656	-0,031	0,012
-168,110	-200,000	-0,014	-0,058
-167,096	-142,897	-0,100	-0,007
-166,081	552,884	-0,062	-0,109
-165,066	-200,000	-0,005	-0,063
-164,052	-200,000	0,011	-0,055
-163,037	76,533	-0,109	-0,084
-162,023	800,000	0,033	-0,067
-161,008	146,584	0,054	0,053
-159,993	-200,000	-0,017	0,080
-158,979	-200,000	-0,026	-0,129
-157,964	199,162	0,051	0,057
-156,950	53,554	0,069	0,048
-155,935	-200,000	-0,015	-0,144
-154,920	-88,199	0,049	-0,011
-153,906	-51,582	-0,180	-0,061
-152,891	136,275	-0,048	-0,045
-151,877	200,116	0,056	-0,063
-150,862	-200,000	0,011	0,070
-149,847	-200,000	-0,005	-0,102
-148,833	-200,000	0,005	0,091
-147,818	-62,597	0,114	0,034
-146,804	-76,093	-0,016	-0,004
-145,789	-200,000	0,011	0,114
-144,775	-200,000	-0,012	-0,050
-143,760	-200,000	0,029	-0,109
-142,745	800,000	0,042	-0,107
-141,731	800,000	0,064	-0,132
-140,716	438,878	-0,025	0,039
-139,702	800,000	0,063	0,144
-138,687	-200,000	-0,013	0,150
-137,672	181,075	0,054	-0,058
-136,658	-120,087	-0,197	-0,024
-135,643	-200,000	-0,001	-0,124
-134,629	114,869	-0,134	-0,119
-133,614	-110,477	0,069	0,010
-132,599	800,000	-0,024	0,076
-131,585	501,501	-0,073	0,123
-130,570	-200,000	-0,005	0,017
-129,556	-91,044	-0,017	-0,003
-128,541	-148,858	0,042	0,002
-127,526	109,323	-0,091	-0,079
-126,512	800,000	0,031	-0,096
-125,497	-68,491	-0,108	0,030
-124,483	122,670	0,033	0,030
-123,468	535,735	0,065	-0,112
-122,453	525,109	0,032	-0,055
-121,439	40,354	-0,055	0,036
-120,424	520,546	-0,073	0,126
