DTS Sentinel unit serial number:	SN410029Multiplexer serial number:	ORYXHardware model number:	OX2-SRSoftware version number:	ORYX F/W v4,00 Oryx Data Collector v3.7.2.0data status	okinstallation	B6 Nyhavnadifferential loss correction	single-endedforward channel	channel 2reverse channel	N/Adate	2023/12/07time	14:30:08forward acquisition time	300,00reverse acquisition time	0,00gamma	499,1914k internal	0,3196k external	0,3196temperature offset calibration	1,0000default loss term (dB/km)	0,3820temperature slope calibration	1,0000multiplexer offset coefficient	1,0000multiplexer slope coefficient	1,0000fibre end	0,00T internal ref (°C)	13,74T ext. ref 1 (°C)	-1,75T ext. ref 2 (°C)	-1,75length (m)	temperature (°C)	Stokes	anti-Stokes-744,400	-200,000	-0,001	0,006
-743,385	-87,352	-0,405	-0,089
-742,371	-200,000	0,018	0,187
-741,356	49,756	-0,335	0,230
-740,342	-122,105	0,106	0,012
-739,327	-86,861	-0,393	-0,087
-738,312	339,089	0,029	0,041
-737,298	-9,433	-0,287	-0,139
-736,283	-117,171	0,127	-0,017
-735,269	2,683	-0,287	-0,151
-734,254	3,418	0,040	-0,021
-733,239	-36,103	-0,516	-0,202
-732,225	-48,858	0,232	0,080
-731,210	800,000	0,027	-0,057
-730,196	45,553	-0,086	-0,057
-729,181	24,868	-0,122	-0,073
-728,167	29,493	0,053	0,032
-727,152	379,290	-0,060	0,090
-726,137	-109,768	-0,196	-0,030
-725,123	179,988	0,064	-0,069
-724,108	8,178	-0,082	0,045
-723,094	-200,000	0,007	-0,139
-722,079	-66,512	-0,060	-0,017
-721,064	281,406	-0,056	0,074
-720,050	-200,000	-0,000	-0,046
-719,035	-200,000	0,016	-0,118
-718,021	63,369	-0,043	0,031
-717,006	-200,000	-0,010	0,092
-715,991	-37,396	-0,142	-0,055
-714,977	34,612	0,028	-0,018
-713,962	-85,628	0,127	0,029
-712,948	-200,000	-0,006	-0,071
-711,933	-200,000	-0,018	0,064
-710,918	28,132	-0,076	-0,047
-709,904	29,236	-0,153	-0,094
-708,889	-93,948	-0,033	-0,006
-707,875	-118,448	-0,063	0,008
-706,860	32,214	-0,023	-0,015
-705,845	-14,416	-0,097	0,045
-704,831	800,000	-0,061	-0,187
-703,816	800,000	-0,058	-0,118
-702,802	465,295	0,059	0,097
-701,787	607,563	-0,095	-0,173
-700,772	-92,668	0,022	-0,005
-699,758	-46,045	0,140	-0,050
-698,743	-200,000	0,004	0,051
-697,729	609,985	0,035	-0,063
-696,714	-200,000	-0,015	0,082
-695,699	-71,442	-0,088	-0,024
-694,685	-200,000	-0,023	-0,128
-693,670	-200,000	-0,003	0,028
-692,656	-77,876	0,006	0,002
-691,641	-4,322	-0,076	-0,038
-690,627	338,400	-0,058	0,082
-689,612	106,359	0,079	0,068
-688,597	226,942	0,036	0,042
-687,583	364,360	0,035	0,051
-686,568	-81,502	-0,112	0,027
-685,554	617,782	0,035	0,063
-684,539	-47,023	0,097	0,034
-683,524	56,260	0,078	-0,055
-682,510	488,031	-0,048	0,079
-681,495	67,867	-0,026	0,019
-680,481	123,152	0,098	-0,089
-679,466	800,000	-0,019	-0,043
-678,451	-200,000	-0,025	-0,155
-677,437	468,235	0,072	0,117
-676,422	-76,900	0,042	-0,011
-675,408	137,529	-0,029	-0,027
-674,393	62,685	-0,086	-0,063
-673,378	-3,576	-0,073	0,037
-672,364	111,580	-0,048	-0,042
-671,349	-67,941	-0,076	0,022
-670,335	-10,384	-0,073	0,035
-669,320	116,004	0,132	0,118
-668,305	-200,000	0,005	-0,026
-667,291	257,438	-0,093	-0,117
-666,276	-200,000	0,017	-0,099
-665,262	-200,000	0,009	-0,133
-664,247	62,497	0,068	-0,049
-663,232	-200,000	0,002	0,110
-662,218	-200,000	-0,002	-0,041
-661,203	31,517	0,107	0,067
-660,189	725,531	0,027	-0,053
-659,174	271,368	0,041	-0,053
-658,159	-55,959	-0,106	-0,034
-657,145	-135,537	-0,098	0,008
-656,130	-200,000	-0,008	-0,089
-655,116	30,297	-0,094	-0,058
-654,101	24,237	0,070	0,042
-653,086	-200,000	-0,014	-0,099
-652,072	-62,164	-0,034	0,010
-651,057	331,701	-0,071	0,099
-650,043	-16,370	-0,106	0,049
-649,028	-200,000	-0,022	0,141
-648,014	-32,461	-0,061	0,024
-646,999	-200,000	-0,024	-0,082
-645,984	-200,000	0,012	0,079
-644,970	-28,779	-0,137	0,057
-643,955	-54,254	-0,097	-0,032
-642,941	-41,405	-0,121	0,045
-641,926	-39,281	-0,103	-0,039
-640,911	14,914	0,043	-0,024
-639,897	-200,000	0,003	0,014
-638,882	99,793	0,103	-0,087
-637,868	-85,825	-0,098	0,022
-636,853	41,852	0,052	-0,034
-635,838	-200,000	-0,007	-0,176
-634,824	-84,613	-0,103	-0,023
-633,809	58,955	0,039	0,028
-632,795	-157,770	0,042	0,002
-631,780	144,702	-0,062	-0,060
-630,765	-23,860	-0,093	0,040
-629,751	800,000	-0,026	-0,057
-628,736	800,000	-0,015	0,035
-627,722	89,334	0,046	0,037
-626,707	-136,877	0,157	-0,013
-625,692	-150,703	-0,185	-0,010
-624,678	-200,000	-0,019	0,183
-623,663	-0,432	-0,087	-0,045
-622,649	-25,782	-0,033	-0,014
-621,634	149,691	-0,029	-0,028
-620,619	-200,000	-0,010	0,036
-619,605	88,028	0,090	0,073
-618,590	-72,175	-0,085	0,023
-617,576	330,445	-0,038	0,053
-616,561	84,020	-0,082	-0,065
-615,546	391,858	0,084	-0,127
-614,532	182,559	-0,073	0,078
-613,517	5,756	0,065	-0,035
-612,503	85,388	0,077	-0,061
-611,488	99,950	0,091	0,076
-610,474	-55,218	0,095	0,031
-609,459	-200,000	-0,021	0,156
-608,444	-92,524	-0,138	0,028
-607,430	-30,877	0,082	-0,033
-606,415	-66,590	-0,068	0,019
-605,401	-108,968	0,190	0,029
-604,386	20,908	0,032	-0,019
-603,371	-116,800	0,124	0,016
-602,357	-200,000	0,028	0,109
-601,342	-200,000	0,031	-0,130
-600,328	91,529	-0,089	-0,073
-599,313	-200,000	0,021	0,082
-598,298	47,454	-0,018	-0,012
-597,284	-140,080	0,071	0,005
-596,269	-200,000	0,008	-0,028
-595,255	800,000	-0,017	0,036
-594,240	111,607	-0,074	-0,065
-593,225	97,956	0,076	0,063
-592,211	81,099	-0,077	-0,060
-591,196	-200,000	0,002	-0,101
-590,182	64,881	-0,049	0,036
-589,167	800,000	0,042	0,114
-588,152	197,965	0,092	0,102
-587,138	342,393	-0,057	-0,082
-586,123	9,612	-0,137	-0,075
-585,109	602,425	0,054	-0,097
-584,094	-200,000	-0,018	-0,180
-583,079	800,000	-0,017	-0,043
-582,065	800,000	-0,032	0,085
-581,050	75,397	-0,066	0,051
-580,036	-53,950	-0,089	0,029
-579,021	-200,000	-0,014	0,050
-578,006	-200,000	0,027	-0,097
-576,992	-121,548	-0,051	0,006
-575,977	800,000	0,041	-0,124
-574,963	-121,335	0,105	0,013
-573,948	527,507	-0,058	-0,100
-572,934	141,876	0,031	0,029
-571,919	28,833	-0,047	0,029
-570,904	800,000	-0,034	-0,100
-569,890	163,493	-0,084	-0,085
-568,875	-33,864	0,054	0,022
-567,861	-78,439	0,138	0,034
-566,846	800,000	0,095	0,211
-565,831	103,205	-0,114	-0,097
-564,817	26,120	-0,046	0,028
-563,802	-24,415	-0,128	0,055
-562,788	-200,000	-0,013	-0,150
-561,773	-200,000	-0,002	0,025
-560,758	-200,000	0,028	0,111
-559,744	-139,802	0,085	-0,006
-558,729	454,761	-0,048	-0,077
-557,715	-200,000	0,005	0,058
-556,700	426,837	-0,078	-0,122
-555,685	-93,882	0,107	0,021
-554,671	406,348	0,032	-0,048
-553,656	-200,000	-0,009	-0,047
-552,642	-25,713	-0,140	0,059
-551,627	-27,153	-0,079	-0,033
-550,612	-32,410	0,038	0,015
-549,598	133,753	-0,081	0,076
-548,583	-165,353	0,093	-0,003
-547,569	800,000	0,048	-0,127
-546,554	77,933	0,095	-0,073
-545,539	-94,081	0,104	0,020
-544,525	-119,907	-0,134	0,016
-543,510	-94,487	-0,126	0,025
-542,496	284,170	-0,142	0,185
-541,481	-54,486	-0,063	-0,020
-540,466	-22,038	-0,090	-0,039
-539,452	800,000	-0,062	0,125
-538,437	800,000	0,034	0,089
-537,423	-148,236	0,132	-0,008
-536,408	-24,265	0,112	-0,048
-535,393	-54,333	-0,086	0,028
-534,379	35,108	0,036	-0,023
-533,364	-55,202	-0,110	0,035
-532,350	6,852	0,155	-0,083
-531,335	-21,942	-0,095	0,042
-530,321	-1,829	-0,044	-0,022
-529,306	62,414	0,105	0,075
-528,291	-200,000	0,038	-0,134
-527,277	276,620	-0,066	-0,084
-526,262	-120,987	-0,021	0,002
-525,248	-173,196	0,132	0,003
-524,233	450,140	-0,022	-0,035
-523,218	-200,000	0,035	0,112
-522,204	-200,000	0,002	0,073
-521,189	247,970	0,003	0,004
-520,175	-200,000	-0,025	-0,176
-519,160	800,000	0,018	0,039
-518,145	-78,574	-0,088	0,022
-517,131	14,794	0,060	0,034
-516,116	172,867	0,062	0,065
-515,102	337,222	-0,042	0,060
-514,087	129,004	-0,053	0,048
-513,072	570,974	-0,030	-0,054
-512,058	-200,000	-0,019	-0,115
-511,043	800,000	0,025	0,069
-510,029	-16,544	0,055	0,025
-509,014	207,035	-0,061	0,069
-507,999	223,802	0,061	-0,071
-506,985	-200,000	-0,001	-0,082
-505,970	-122,868	-0,056	0,006
-504,956	-200,000	-0,007	-0,055
-503,941	800,000	0,023	-0,060
-502,926	-2,400	0,072	0,036
-501,912	800,000	0,024	-0,054
-500,897	66,663	0,046	-0,034
-499,883	-30,982	0,101	0,041
-498,868	298,925	0,040	-0,054
-497,853	-83,873	-0,235	0,053
-496,839	-200,000	0,006	-0,057
-495,824	800,000	-0,019	0,047
-494,810	-32,139	-0,075	-0,030
-493,795	554,780	-0,029	0,050
-492,781	-131,689	-0,133	-0,012
-491,766	-17,099	0,056	-0,025
-490,751	273,258	-0,058	0,075
-489,737	-200,000	-0,007	-0,047
-488,722	79,365	0,042	-0,033
-487,708	395,820	0,013	-0,019
-486,693	77,944	-0,069	0,053
-485,678	-200,000	0,033	-0,111
-484,664	800,000	-0,081	-0,192
-483,649	-61,065	-0,109	-0,033
-482,635	-60,538	0,131	0,040
-481,620	800,000	0,048	-0,100
-480,605	142,993	-0,031	-0,030
-479,591	800,000	0,011	0,029
-478,576	309,211	-0,131	0,177
-477,562	235,652	-0,045	0,054
-476,547	-200,000	-0,003	-0,021
-475,532	-140,606	0,092	-0,007
-474,518	-200,000	0,025	0,094
-473,503	64,018	-0,050	0,036
-472,489	394,953	0,099	0,149
-471,474	139,830	0,120	-0,114
-470,459	57,017	-0,088	-0,061
-469,445	-200,000	0,011	0,062
-468,430	-200,000	-0,016	0,127
-467,416	-200,000	-0,009	0,114
-466,401	133,786	0,056	0,053
-465,386	82,995	0,065	0,051
-464,372	-119,892	0,082	-0,010
-463,357	-110,045	-0,234	-0,035
-462,343	-184,485	-0,023	0,000
-461,328	435,156	0,056	-0,088
-460,313	800,000	-0,025	0,064
-459,299	-200,000	-0,049	0,167
-458,284	-200,000	-0,001	0,068
-457,270	735,665	-0,031	0,061
-456,255	583,568	0,040	-0,071
-455,241	-68,939	-0,045	0,012
-454,226	-173,989	-0,076	0,002
-453,211	41,313	0,093	0,060
-452,197	-200,000	0,020	0,145
-451,182	-200,000	0,033	0,128
-450,168	-89,243	0,067	0,014
-449,153	-144,818	-0,055	-0,004
-448,138	288,801	-0,076	-0,099
-447,124	-48,581	0,080	-0,028
-446,109	191,582	0,046	0,050
-445,095	0,021	0,061	0,031
-444,080	503,759	0,077	0,128
-443,065	-127,650	0,048	-0,005
-442,051	800,000	-0,010	0,025
-441,036	582,918	0,058	-0,103
-440,022	-200,000	-0,025	-0,104
-439,007	72,966	-0,075	-0,057
-437,992	35,552	-0,077	0,049
-436,978	-100,533	-0,051	-0,009
-435,963	-53,771	0,115	-0,038
-434,949	201,315	-0,139	0,154
-433,934	156,424	-0,141	-0,140
-432,919	-166,787	-0,041	-0,001
-431,905	-119,307	-0,072	-0,009
-430,890	-109,895	0,046	0,007
-429,876	24,790	0,049	-0,029
-428,861	293,608	-0,015	-0,020
-427,846	183,201	0,098	-0,104
-426,832	-97,570	-0,198	-0,037
-425,817	-80,148	-0,110	0,026
-424,803	-76,040	-0,079	0,020
-423,788	46,224	0,045	0,030
-422,773	64,323	-0,026	0,018
-421,759	207,659	0,019	-0,021
-420,744	-200,000	-0,025	-0,145
-419,730	-200,000	-0,032	-0,210
-418,715	143,154	-0,087	0,083
-417,701	382,688	0,076	0,113
-416,686	14,580	-0,114	-0,064
-415,671	-199,369	0,191	0,001
-414,657	800,000	-0,049	0,131
-413,642	-99,584	0,067	0,012
-412,628	652,411	-0,045	-0,083
-411,613	-48,442	0,073	-0,025
-410,598	337,610	-0,017	-0,024
-409,584	800,000	0,065	0,156
-408,569	-200,000	0,012	0,041
-407,555	-22,826	0,088	0,038
-406,540	-115,371	-0,111	0,015
-405,525	58,808	0,036	0,025
-404,511	-58,395	-0,135	-0,042
-403,496	800,000	-0,050	-0,135
-402,482	294,554	0,054	-0,071
-401,467	381,465	-0,061	-0,090
-400,452	800,000	-0,018	-0,046
-399,438	-200,000	0,006	0,105
-398,423	-64,071	-0,007	0,002
-397,409	800,000	0,034	-0,074
-396,394	198,945	-0,037	0,040
-395,379	754,484	-0,037	0,072
-394,365	-57,520	0,129	-0,040
-393,350	-14,529	0,164	0,076
-392,336	501,624	-0,056	0,094
-391,321	39,427	-0,017	0,011
-390,306	-200,000	-0,019	-0,111
-389,292	-125,845	-0,030	0,003
-388,277	-51,526	0,071	-0,024
-387,263	108,797	0,059	-0,050
-386,248	-200,000	0,001	0,093
-385,233	-200,000	-0,003	0,013
-384,219	-200,000	0,002	0,069
-383,204	-52,488	0,146	-0,048
-382,190	66,927	0,023	0,017
-381,175	479,036	0,050	0,082
-380,160	-115,341	0,060	0,008
-379,146	800,000	0,051	0,104
-378,131	-52,040	0,047	0,016
-377,117	572,929	-0,044	0,078
-376,102	16,585	-0,049	0,028
-375,088	-129,193	-0,006	0,001
-374,073	21,650	0,080	-0,046
-373,058	-200,000	0,007	-0,077
-372,044	800,000	0,020	0,041
-371,029	125,654	0,127	0,115
-370,015	800,000	-0,050	0,132
-369,000	81,326	0,150	-0,116
-367,985	-62,986	-0,140	-0,041
-366,971	45,463	-0,071	0,047
-365,956	-80,144	0,106	-0,025
-364,942	-154,043	0,138	0,007
-363,927	-140,903	0,088	-0,006
-362,912	17,595	-0,118	-0,067
-361,898	28,857	-0,033	-0,020
-360,883	154,650	0,111	-0,109
-359,869	-55,913	-0,112	-0,036
-358,854	187,008	0,037	-0,039
-357,839	652,653	-0,039	0,072
-356,825	336,582	0,058	0,082
-355,810	-200,000	0,019	0,078
-354,796	144,808	-0,072	-0,069
-353,781	363,659	0,044	-0,063
-352,766	-112,764	0,088	0,012
-351,752	-60,434	0,094	0,029
-350,737	800,000	0,022	-0,053
-349,723	-173,255	0,116	0,002
-348,708	358,113	-0,033	0,048
-347,693	0,835	0,093	0,047
-346,679	-34,917	0,071	-0,028
-345,664	-18,559	0,126	0,056
-344,650	-200,000	-0,029	0,155
-343,635	-200,000	0,015	0,059
-342,620	-200,000	-0,020	0,073
-341,606	-160,956	0,041	0,002
-340,591	-14,358	0,084	0,039
-339,577	-28,717	0,037	0,015
-338,562	291,924	-0,071	-0,093
-337,548	392,104	0,083	0,124
-336,533	-200,000	-0,028	-0,156
-335,518	299,744	0,076	-0,100
-334,504	6,540	0,055	-0,029
-333,489	140,929	0,086	0,081
-332,475	-69,067	-0,150	0,041
-331,460	73,633	-0,077	-0,058
-330,445	138,636	0,057	0,054
-329,431	800,000	-0,041	0,092
-328,416	309,439	0,100	0,135
-327,402	800,000	-0,038	-0,119
-326,387	-57,874	0,069	-0,021
-325,372	-167,583	-0,061	-0,002
-324,358	464,999	0,060	-0,097
-323,343	444,670	-0,029	-0,045
-322,329	-200,000	0,010	-0,106
-321,314	-200,000	0,003	0,010
-320,299	32,375	0,087	-0,054
-319,285	208,439	0,044	-0,049
-318,270	-18,292	-0,065	-0,029
-317,256	-49,427	0,081	-0,028
-316,241	-123,019	-0,081	0,009
-315,226	-17,864	0,072	-0,032
-314,212	65,366	-0,071	-0,051
-313,197	-200,000	-0,009	-0,029
-312,183	-121,487	-0,021	-0,002
-311,168	45,978	-0,097	0,064
-310,153	-50,563	0,076	-0,026
-309,139	729,253	-0,029	0,055
-308,124	-200,000	0,005	-0,026
-307,110	-200,000	0,027	0,175
-306,095	368,100	0,026	0,038
-305,080	800,000	-0,018	0,053
-304,066	-107,108	-0,090	0,014
-303,051	195,180	0,037	0,040
-302,037	369,380	0,018	-0,026
-301,022	800,000	-0,070	-0,208
-300,008	-200,000	0,001	-0,029
-298,993	57,670	0,202	0,141
-297,978	-119,679	0,036	-0,004
-296,964	65,212	-0,148	-0,107
-295,949	800,000	0,019	-0,052
-294,935	511,411	-0,037	0,062
-293,920	-200,000	-0,003	-0,039
-292,905	-200,000	0,032	0,129
-291,891	-59,645	-0,089	0,027
-290,876	-200,000	0,007	0,046
-289,862	44,150	0,121	0,079
-288,847	-22,205	-0,078	-0,034
-287,832	704,722	-0,030	-0,058
-286,818	-24,825	0,066	-0,028
-285,803	-200,000	-0,002	-0,028
-284,789	142,880	-0,055	-0,052
-283,774	15,895	-0,126	-0,071
-282,759	800,000	0,024	-0,071
-281,745	-200,000	0,018	-0,163
-280,730	113,000	-0,080	0,069
-279,716	800,000	0,038	-0,106
-278,701	191,932	0,071	0,077
-277,686	357,507	0,107	-0,153
-276,672	383,724	0,054	0,080
-275,657	47,115	-0,038	0,025
-274,643	-52,096	-0,112	0,037
-273,628	-200,000	0,004	0,120
-272,613	-200,000	-0,007	-0,098
-271,599	-43,837	0,083	0,030
-270,584	800,000	-0,057	-0,161
-269,570	-93,437	0,081	-0,016
-268,555	-170,012	-0,164	-0,004
-267,540	201,939	-0,047	-0,052
-266,526	409,297	0,027	-0,040
-265,511	455,397	0,044	0,070
-264,497	-123,051	0,170	0,019
-263,482	164,305	0,013	-0,013
-262,467	-136,316	-0,119	-0,010
-261,453	292,257	-0,009	-0,012
-260,438	-200,000	0,014	-0,076
-259,424	-200,000	-0,002	0,057
-258,409	-200,000	0,013	-0,088
-257,395	800,000	-0,070	-0,145
-256,380	447,670	0,058	0,092
-255,365	26,985	0,138	-0,082
-254,351	257,528	-0,028	0,034
-253,336	455,339	0,042	-0,067
-252,322	-92,091	-0,101	-0,020
-251,307	116,124	0,020	0,017
-250,292	203,243	0,107	-0,119
-249,278	-200,000	0,011	0,043
-248,263	0,455	0,146	0,074
-247,249	-147,248	0,198	-0,012
-246,234	-83,913	-0,112	0,025
-245,219	464,989	-0,023	0,036
-244,205	520,370	-0,034	-0,056
-243,190	-150,982	-0,164	-0,009
-242,176	-139,352	0,103	-0,008
-241,161	-50,442	0,017	0,006
-240,146	-200,000	-0,005	0,065
-239,132	-200,000	-0,016	0,078
-238,117	735,113	-0,010	-0,019
-237,103	38,524	-0,081	-0,052
-236,088	322,991	0,072	0,098
-235,073	800,000	0,041	-0,104
-234,059	-20,925	-0,018	0,008
-233,044	800,000	-0,062	0,159
-232,030	-105,537	-0,057	0,009
-231,015	-74,175	0,040	-0,010
-230,000	-40,680	-0,106	-0,039
-228,986	-200,000	0,002	0,076
-227,971	263,585	-0,029	0,036
-226,957	-44,836	0,028	-0,010
-225,942	-200,000	0,010	-0,084
-224,927	-200,000	-0,002	0,036
-223,913	-200,000	-0,004	-0,046
-222,898	188,925	-0,073	-0,078
-221,884	-200,000	0,000	0,060
-220,869	318,187	0,090	0,122
-219,855	-155,593	0,151	0,007
-218,840	47,082	0,062	0,041
-217,825	-160,757	-0,152	0,006
-216,811	800,000	-0,027	-0,056
-215,796	-52,201	-0,108	0,036
-214,782	-200,000	0,010	-0,074
-213,767	84,533	0,127	0,099
-212,752	-200,000	0,004	0,042
-211,738	-200,000	0,021	-0,118
-210,723	800,000	-0,021	-0,059
-209,709	-200,000	-0,026	-0,087
-208,694	-137,177	-0,072	0,006
-207,679	-200,000	0,031	-0,150
-206,665	-167,401	0,233	0,007
-205,650	148,034	0,128	0,123
-204,636	800,000	0,012	0,032
-203,621	-100,593	0,080	0,014
-202,606	-147,610	-0,211	-0,012
-201,592	208,854	-0,045	-0,051
-200,577	-200,000	0,006	-0,092
-199,563	402,857	-0,022	0,033
-198,548	800,000	-0,038	0,092
-197,533	27,152	0,145	0,087
-196,519	224,976	-0,031	-0,035
-195,504	100,818	0,081	0,067
-194,490	-124,694	-0,053	0,006
-193,475	687,691	0,039	-0,073
-192,460	-200,000	-0,022	0,079
-191,446	-200,000	0,008	0,083
-190,431	-200,000	-0,026	0,146
-189,417	-39,793	-0,100	-0,037
-188,402	108,881	0,101	-0,086
-187,387	210,032	-0,049	-0,055
-186,373	-200,000	0,012	0,140
-185,358	19,777	0,069	-0,039
-184,344	-159,329	0,103	-0,004
-183,329	113,597	0,004	0,004
-182,315	-95,189	-0,098	0,019
-181,300	13,289	-0,037	-0,020
-180,285	24,219	0,034	0,020
-179,271	-11,113	0,055	-0,026
-178,256	-50,710	-0,030	-0,010
-177,242	780,548	0,026	0,051
-176,227	-200,000	0,019	0,092
-175,212	-200,000	-0,027	0,104
-174,198	-139,164	0,100	-0,008
-173,183	-78,616	-0,059	0,014
-172,169	-95,909	-0,111	-0,021
-171,154	800,000	-0,015	0,036
-170,139	286,341	0,049	-0,064
-169,125	151,920	0,070	0,068
-168,110	-35,631	-0,102	0,039
-167,096	362,783	-0,111	-0,159
-166,081	-191,496	-0,054	0,000
-165,066	24,714	0,091	-0,053
-164,052	-139,633	-0,168	-0,013
-163,037	386,049	0,091	-0,135
-162,023	379,123	0,035	-0,052
-161,008	-125,278	-0,017	-0,002
-159,993	-200,000	-0,002	-0,130
-158,979	374,400	-0,057	-0,083
-157,964	8,878	-0,105	-0,056
-156,950	40,570	-0,221	-0,142
-155,935	-200,000	0,004	0,036
-154,920	-16,240	0,142	0,064
-153,906	800,000	-0,023	0,069
-152,891	-200,000	-0,003	0,160
-151,877	128,106	0,076	-0,068
-150,862	-200,000	-0,016	-0,095
-149,847	-200,000	-0,001	-0,011
-148,833	390,279	-0,026	-0,039
-147,818	114,785	0,148	0,128
-146,804	533,321	-0,044	0,075
-145,789	800,000	-0,036	-0,112
-144,775	97,283	0,051	-0,042
-143,760	-200,000	-0,022	0,165
-142,745	-4,618	-0,049	-0,024
-141,731	689,119	0,062	0,116
-140,716	70,474	0,159	-0,117
-139,702	-200,000	-0,038	0,123
-138,687	274,695	0,026	-0,032
-137,672	-200,000	0,004	-0,019
-136,658	800,000	-0,054	-0,135
-135,643	-200,000	0,005	0,038
-134,629	254,255	-0,019	-0,024
-133,614	206,490	-0,029	0,032
-132,599	61,795	-0,069	-0,049
-131,585	67,315	0,047	-0,034
-130,570	104,172	-0,058	0,048
-129,556	381,138	-0,054	-0,079
-128,541	800,000	0,039	-0,121
-127,526	-106,609	-0,077	0,012
-126,512	-119,655	0,073	-0,009
-125,497	-77,547	0,037	-0,009
-124,483	576,003	-0,021	0,037
-123,468	321,833	0,052	-0,071
-122,453	-51,078	-0,171	-0,057
-121,439	120,572	-0,051	-0,045
-120,424	291,616	-0,061	-0,079
-119,410	-3,090	0,126	-0,062
