DTS Sentinel unit serial number:	SN410029Multiplexer serial number:	ORYXHardware model number:	OX2-SRSoftware version number:	ORYX F/W v4,00 Oryx Data Collector v3.7.2.0data status	okinstallation	B6 Nyhavnadifferential loss correction	single-endedforward channel	channel 2reverse channel	N/Adate	2023/12/09time	22:30:08forward acquisition time	300,00reverse acquisition time	0,00gamma	499,1914k internal	0,3127k external	0,3127temperature offset calibration	1,0000default loss term (dB/km)	0,3820temperature slope calibration	1,0000multiplexer offset coefficient	1,0000multiplexer slope coefficient	1,0000fibre end	0,00T internal ref (°C)	21,68T ext. ref 1 (°C)	5,43T ext. ref 2 (°C)	5,42length (m)	temperature (°C)	Stokes	anti-Stokes-744,400	-100,589	0,091	-0,017
-743,385	44,064	-0,236	0,160
-742,371	17,203	0,203	-0,119
-741,356	48,649	-0,181	0,126
-740,342	-51,383	0,162	0,056
-739,327	-72,907	-0,185	-0,050
-738,312	210,169	0,047	0,055
-737,298	-122,142	-0,211	0,025
-736,283	800,000	-0,026	-0,086
-735,269	-8,213	-0,215	0,107
-734,254	673,657	0,053	-0,102
-733,239	-14,937	-0,321	-0,153
-732,225	91,698	0,154	-0,129
-731,210	31,603	-0,116	0,074
-730,196	387,090	0,033	-0,050
-729,181	337,311	-0,054	-0,079
-728,167	-200,000	-0,011	-0,061
-727,152	-53,580	-0,036	0,012
-726,137	11,331	-0,128	0,073
-725,123	-200,000	0,004	-0,079
-724,108	-200,000	-0,021	-0,133
-723,094	-200,000	0,018	-0,097
-722,079	-145,034	-0,110	0,007
-721,064	299,677	-0,055	0,076
-720,050	-105,233	0,026	0,004
-719,035	-23,981	0,052	0,023
-718,021	82,058	-0,045	0,036
-717,006	-200,000	-0,010	-0,092
-715,991	-200,000	0,027	-0,112
-714,977	-62,375	-0,070	0,021
-713,962	29,232	-0,079	-0,050
-712,948	-44,185	0,105	0,039
-711,933	800,000	0,032	-0,094
-710,918	-104,724	-0,134	-0,023
-709,904	45,342	-0,062	-0,042
-708,889	319,374	0,061	-0,086
-707,875	-200,000	-0,020	-0,094
-706,860	-200,000	-0,005	0,018
-705,845	147,872	0,071	0,071
-704,831	-51,749	0,048	0,017
-703,816	-126,254	-0,130	0,014
-702,802	-200,000	0,005	-0,035
-701,787	800,000	-0,039	-0,117
-700,772	752,155	-0,017	0,034
-699,758	-200,000	-0,013	0,076
-698,743	641,314	0,002	-0,003
-697,729	201,796	0,054	0,061
-696,714	-200,000	0,009	0,046
-695,699	129,982	-0,047	0,045
-694,685	800,000	0,042	-0,131
-693,670	800,000	0,032	-0,068
-692,656	-200,000	0,003	0,044
-691,641	310,803	-0,043	0,060
-690,627	-200,000	-0,023	0,088
-689,612	24,242	-0,087	-0,053
-688,597	-109,726	-0,057	-0,009
-687,583	-200,000	-0,001	-0,182
-686,568	-68,724	-0,163	-0,047
-685,554	199,654	0,011	0,012
-684,539	513,964	-0,069	0,121
-683,524	15,310	0,164	0,095
-682,510	800,000	-0,028	0,065
-681,495	800,000	-0,069	0,150
-680,481	-200,000	-0,004	-0,071
-679,466	56,683	-0,044	-0,032
-678,451	-200,000	-0,015	0,129
-677,437	-29,919	0,069	-0,029
-676,422	-158,644	0,141	-0,006
-675,408	256,224	0,015	-0,019
-674,393	-48,347	-0,169	0,060
-673,378	2,668	-0,176	-0,094
-672,364	800,000	-0,024	0,060
-671,349	-35,336	-0,032	-0,013
-670,335	-200,000	-0,014	0,071
-669,320	18,654	-0,067	0,040
-668,305	106,364	-0,025	-0,022
-667,291	107,249	0,120	0,106
-666,276	-200,000	-0,019	0,082
-665,262	353,943	-0,013	-0,019
-664,247	296,531	-0,036	0,049
-663,232	800,000	0,056	0,126
-662,218	115,029	-0,040	-0,036
-661,203	-13,896	0,086	0,041
-660,189	-200,000	-0,002	-0,060
-659,174	-200,000	-0,029	-0,182
-658,159	-197,336	-0,037	-0,000
-657,145	78,898	-0,075	0,060
-656,130	-95,173	-0,140	0,028
-655,116	38,920	0,125	0,083
-654,101	694,506	0,053	0,104
-653,086	-159,610	-0,070	-0,003
-652,072	-58,018	-0,055	-0,018
-651,057	-200,000	-0,036	-0,225
-650,043	88,879	0,009	0,008
-649,028	-142,344	0,128	-0,009
-648,014	104,744	-0,075	-0,066
-646,999	18,269	0,146	-0,086
-645,984	-73,069	-0,108	-0,029
-644,970	-19,729	-0,093	0,043
-643,955	-200,000	0,038	-0,223
-642,941	800,000	-0,087	-0,190
-641,926	513,728	-0,025	-0,043
-640,911	800,000	-0,048	0,106
-639,897	474,588	0,038	0,063
-638,882	800,000	0,034	-0,080
-637,868	800,000	-0,012	0,036
-636,853	136,163	-0,072	-0,069
-635,838	-169,175	-0,078	0,002
-634,824	-160,908	0,054	-0,002
-633,809	59,403	0,069	-0,051
-632,795	750,142	-0,021	-0,043
-631,780	605,799	-0,022	-0,040
-630,765	-200,000	-0,026	-0,131
-629,751	-57,284	-0,058	0,019
-628,736	800,000	0,013	-0,031
-627,722	265,242	0,065	0,085
-626,707	-200,000	-0,006	-0,068
-625,692	174,135	-0,051	0,055
-624,678	37,867	0,108	-0,071
-623,663	-103,406	-0,055	-0,010
-622,649	32,713	-0,120	-0,077
-621,634	-25,558	-0,032	0,014
-620,619	-200,000	-0,052	-0,228
-619,605	-141,387	-0,147	-0,011
-618,590	-200,000	0,008	-0,058
-617,576	800,000	0,010	0,022
-616,561	800,000	0,057	-0,142
-615,546	-41,229	-0,075	-0,028
-614,532	-200,000	0,020	-0,090
-613,517	-94,970	-0,206	-0,041
-612,503	263,371	-0,030	-0,038
-611,488	169,687	-0,038	-0,041
-610,474	308,157	0,035	-0,048
-609,459	-200,000	-0,019	-0,113
-608,444	-187,502	-0,065	0,001
-607,430	-108,075	-0,019	-0,003
-606,415	56,843	0,066	-0,048
-605,401	-6,784	0,123	0,062
-604,386	18,452	-0,074	0,044
-603,371	800,000	-0,023	0,066
-602,357	92,042	0,055	-0,046
-601,342	22,702	-0,069	-0,042
-600,328	167,479	-0,069	-0,073
-599,313	-200,000	0,029	-0,100
-598,298	27,847	0,121	-0,076
-597,284	-25,583	0,134	0,058
-596,269	48,194	0,080	0,055
-595,255	169,626	0,094	0,099
-594,240	144,681	0,032	0,031
-593,225	59,201	0,102	0,074
-592,211	7,301	0,128	0,070
-591,196	60,938	-0,118	0,086
-590,182	-200,000	0,024	0,133
-589,167	-200,000	-0,058	0,196
-588,152	741,153	0,038	0,076
-587,138	-47,013	-0,043	0,015
-586,123	13,753	-0,171	0,098
-585,109	800,000	-0,035	-0,080
-584,094	-88,604	-0,069	-0,015
-583,079	-50,712	0,049	0,017
-582,065	49,558	0,005	-0,003
-581,050	317,886	-0,060	0,084
-580,036	151,691	-0,119	0,120
-579,021	-122,938	0,148	-0,017
-578,006	4,150	0,097	-0,052
-576,992	434,423	-0,063	-0,101
-575,977	800,000	-0,031	0,079
-574,963	198,177	0,064	-0,072
-573,948	254,807	0,058	0,073
-572,934	-200,000	0,013	-0,049
-571,919	-60,947	-0,226	-0,070
-570,904	479,967	-0,039	-0,066
-569,890	-200,000	-0,002	-0,156
-568,875	-200,000	0,018	-0,081
-567,861	-146,432	0,170	0,011
-566,846	-198,018	0,014	0,000
-565,831	119,076	0,068	0,062
-564,817	76,660	-0,059	-0,046
-563,802	-15,427	-0,072	0,034
-562,788	-200,000	0,008	-0,039
-561,773	144,204	0,042	0,041
-560,758	221,147	0,108	0,128
-559,744	51,496	0,208	0,146
-558,729	800,000	0,021	-0,069
-557,715	7,225	-0,021	0,012
-556,700	374,403	-0,039	-0,058
-555,685	85,071	0,032	-0,026
-554,671	333,049	-0,063	-0,090
-553,656	-200,000	0,011	0,069
-552,642	-200,000	0,001	-0,073
-551,627	325,041	-0,033	-0,047
-550,612	800,000	0,046	-0,104
-549,598	-200,000	-0,018	-0,119
-548,583	-200,000	0,009	0,067
-547,569	-117,542	0,069	0,009
-546,554	268,622	0,063	0,081
-545,539	272,991	0,118	0,155
-544,525	-129,617	0,077	-0,008
-543,510	133,353	-0,064	0,061
-542,496	154,816	-0,082	-0,084
-541,481	69,541	-0,096	-0,073
-540,466	411,202	0,047	0,074
-539,452	-200,000	0,001	-0,030
-538,437	-200,000	0,018	0,169
-537,423	444,431	-0,053	0,086
-536,408	411,148	0,044	-0,070
-535,393	-134,807	-0,024	0,002
-534,379	-200,000	-0,026	0,095
-533,364	-37,088	0,072	-0,028
-532,350	-200,000	0,004	0,091
-531,335	-162,840	-0,092	-0,003
-530,321	-8,649	0,068	0,033
-529,306	182,030	0,043	0,046
-528,291	-200,000	0,014	-0,115
-527,277	-200,000	0,030	-0,194
-526,262	226,811	0,102	0,122
-525,248	481,515	0,044	0,075
-524,233	-200,000	-0,020	0,104
-523,218	-37,413	0,049	-0,019
-522,204	122,462	-0,040	-0,037
-521,189	-200,000	-0,011	0,082
-520,175	-200,000	-0,004	-0,134
-519,160	800,000	0,059	-0,123
-518,145	257,784	0,019	-0,025
-517,131	-200,000	-0,004	0,040
-516,116	-200,000	-0,001	-0,122
-515,102	800,000	-0,046	-0,114
-514,087	-13,103	-0,049	-0,024
-513,072	-200,000	0,008	0,064
-512,058	800,000	-0,021	0,068
-511,043	616,591	-0,043	0,080
-510,029	800,000	0,042	0,116
-509,014	-72,185	-0,054	0,015
-507,999	15,440	0,157	0,091
-506,985	-200,000	0,005	-0,037
-505,970	515,024	-0,016	-0,028
-504,956	115,967	-0,102	-0,092
-503,941	-118,367	0,100	0,013
-502,926	258,960	0,044	0,056
-501,912	800,000	0,035	0,076
-500,897	-200,000	-0,001	0,075
-499,883	800,000	0,031	-0,070
-498,868	800,000	-0,040	0,100
-497,853	-70,544	-0,098	0,027
-496,839	-200,000	-0,017	-0,067
-495,824	-70,189	0,073	-0,020
-494,810	493,238	0,080	0,136
-493,795	800,000	0,025	-0,076
-492,781	232,493	-0,039	-0,047
-491,766	20,332	-0,106	0,063
-490,751	-200,000	0,005	0,045
-489,737	103,607	0,085	-0,073
-488,722	-200,000	-0,022	-0,117
-487,708	-200,000	-0,002	0,111
-486,693	152,574	-0,038	0,039
-485,678	465,049	0,010	-0,017
-484,664	361,226	0,021	-0,031
-483,649	-90,130	-0,106	0,023
-482,635	-200,000	-0,002	-0,061
-481,620	-138,304	0,056	-0,004
-480,605	-200,000	0,005	0,047
-479,591	-200,000	-0,008	-0,084
-478,576	313,517	0,002	0,003
-477,562	433,617	-0,070	-0,113
-476,547	19,988	0,089	-0,053
-475,532	-200,000	-0,009	0,048
-474,518	800,000	0,020	0,040
-473,503	126,997	0,117	0,109
-472,489	-15,430	0,112	-0,052
-471,474	-104,387	-0,113	-0,019
-470,459	-177,894	0,199	0,003
-469,445	-47,172	-0,108	-0,038
-468,430	84,524	-0,045	0,036
-467,416	-200,000	-0,018	0,101
-466,401	403,900	-0,080	0,124
-465,386	13,862	0,081	0,046
-464,372	800,000	-0,018	-0,055
-463,357	252,814	-0,030	0,038
-462,343	43,207	0,055	0,037
-461,328	33,925	-0,032	-0,021
-460,313	-200,000	-0,004	0,073
-459,299	146,232	0,107	0,106
-458,284	69,727	0,059	0,045
-457,270	370,764	0,018	0,027
-456,255	-134,520	0,026	-0,002
-455,241	-54,296	-0,126	0,042
-454,226	616,823	0,041	-0,075
-453,211	30,247	-0,035	-0,022
-452,197	-35,914	0,104	-0,041
-451,182	298,195	-0,083	0,113
-450,168	68,040	-0,065	0,049
-449,153	-148,788	-0,043	-0,003
-448,138	-200,000	0,010	-0,165
-447,124	-200,000	0,012	-0,126
-446,109	-200,000	-0,030	0,127
-445,095	245,352	0,047	0,058
-444,080	275,062	0,069	0,090
-443,065	-21,324	0,129	0,058
-442,051	-89,930	-0,101	0,021
-441,036	121,665	-0,047	-0,043
-440,022	-131,655	0,039	0,004
-439,007	168,602	-0,110	0,115
-437,992	-200,000	-0,023	0,081
-436,978	-113,983	0,058	0,008
-435,963	-154,000	0,172	-0,008
-434,949	-69,285	-0,067	-0,019
-433,934	-164,516	-0,075	0,002
-432,919	-200,000	0,018	-0,224
-431,905	64,920	0,064	0,047
-430,890	-200,000	-0,005	-0,017
-429,876	-200,000	0,002	0,032
-428,861	-58,218	0,151	0,048
-427,846	97,784	-0,113	0,095
-426,832	-200,000	-0,017	0,166
-425,817	-74,549	-0,061	0,016
-424,803	-200,000	0,001	-0,069
-423,788	-200,000	0,044	0,172
-422,773	-136,635	0,031	0,003
-421,759	546,976	0,039	0,068
-420,744	494,919	0,032	0,055
-419,730	-111,902	-0,095	0,014
-418,715	338,235	0,079	-0,113
-417,701	-42,910	0,106	0,039
-416,686	-200,000	0,028	0,097
-415,671	84,637	-0,044	-0,035
-414,657	-27,232	0,099	0,042
-413,642	413,725	-0,025	0,039
-412,628	-200,000	-0,002	-0,020
-411,613	-200,000	-0,002	0,010
-410,598	31,120	-0,109	0,068
-409,584	-37,805	0,183	0,071
-408,569	203,222	-0,025	-0,029
-407,555	-72,837	-0,075	0,020
-406,540	207,463	0,052	-0,059
-405,525	800,000	-0,018	0,044
-404,511	800,000	-0,016	-0,035
-403,496	-200,000	-0,034	0,173
-402,482	307,788	-0,108	0,148
-401,467	37,918	0,027	-0,018
-400,452	-86,055	0,126	0,028
-399,438	151,315	0,064	-0,064
-398,423	-200,000	0,003	-0,157
-397,409	-200,000	0,006	-0,106
-396,394	-7,896	0,033	0,016
-395,379	716,894	-0,094	-0,185
-394,365	800,000	-0,012	0,032
-393,350	-200,000	-0,032	0,105
-392,336	173,453	0,044	0,047
-391,321	468,636	-0,018	-0,029
-390,306	-89,579	-0,226	-0,048
-389,292	800,000	0,060	0,134
-388,277	-77,186	0,068	-0,017
-387,263	-54,825	0,125	0,041
-386,248	-200,000	0,016	0,072
-385,233	-104,397	0,110	0,019
-384,219	56,206	0,041	0,029
-383,204	-184,326	-0,145	0,002
-382,190	30,608	-0,071	-0,045
-381,175	-6,343	-0,087	0,043
-380,160	-52,248	0,056	0,019
-379,146	-79,612	0,032	-0,008
-378,131	-200,000	-0,007	0,118
-377,117	221,070	0,069	0,081
-376,102	114,393	-0,012	-0,011
-375,088	313,485	0,059	-0,082
-374,073	800,000	-0,035	-0,078
-373,058	78,172	0,063	-0,050
-372,044	122,508	0,019	0,017
-371,029	-51,725	0,037	-0,012
-370,015	327,193	-0,088	-0,124
-369,000	-0,009	0,033	0,017
-367,985	800,000	-0,046	-0,112
-366,971	-178,838	-0,147	-0,002
-365,956	63,174	0,057	0,042
-364,942	-200,000	-0,012	0,094
-363,927	111,662	0,083	-0,073
-362,912	800,000	0,024	0,077
-361,898	172,770	0,055	-0,058
-360,883	86,901	-0,151	-0,122
-359,869	-200,000	0,028	-0,096
-358,854	800,000	-0,052	0,108
-357,839	173,226	0,079	0,084
-356,825	-159,340	0,088	0,004
-355,810	-97,063	-0,204	0,039
-354,796	-200,000	0,001	-0,054
-353,781	800,000	-0,029	-0,083
-352,766	6,347	0,036	0,020
-351,752	120,837	-0,050	-0,046
-350,737	-79,052	-0,099	0,025
-349,723	648,374	-0,027	0,051
-348,708	174,905	-0,021	-0,022
-347,693	-27,158	0,082	0,035
-346,679	-200,000	-0,034	-0,122
-345,664	10,171	-0,055	0,030
-344,650	-200,000	0,010	0,045
-343,635	-145,623	0,131	-0,008
-342,620	149,787	0,038	0,037
-341,606	-200,000	-0,002	0,072
-340,591	262,050	-0,083	0,105
-339,577	736,978	0,049	0,097
-338,562	-200,000	-0,002	-0,025
-337,548	-48,433	-0,150	-0,053
-336,533	-200,000	-0,010	0,144
-335,518	-200,000	0,020	0,069
-334,504	-153,519	-0,149	0,007
-333,489	-52,160	-0,205	-0,069
-332,475	-168,919	0,065	-0,002
-331,460	280,689	0,083	-0,109
-330,445	790,616	0,021	-0,042
-329,431	-143,485	0,089	-0,006
-328,416	-200,000	0,018	0,194
-327,402	-200,000	0,006	0,280
-326,387	-200,000	0,004	-0,103
-325,372	91,746	-0,056	-0,046
-324,358	466,037	-0,046	0,076
-323,343	-200,000	0,010	0,103
-322,329	110,308	0,025	-0,022
-321,314	37,812	0,052	0,034
-320,299	714,842	0,017	-0,032
-319,285	-121,724	0,137	0,016
-318,270	-104,156	0,095	0,016
-317,256	-81,323	-0,065	-0,016
-316,241	-37,338	-0,057	0,022
-315,226	268,742	-0,034	-0,044
-314,212	0,212	0,075	0,039
-313,197	-65,000	0,063	0,019
-312,183	2,455	-0,023	-0,012
-311,168	528,318	-0,029	-0,051
-310,153	-7,485	-0,126	-0,062
-309,139	160,528	-0,078	-0,080
-308,124	43,236	0,127	0,084
-307,110	335,892	-0,030	-0,042
-306,095	-59,831	-0,102	0,032
-305,080	52,686	-0,103	-0,072
-304,066	-58,894	0,031	-0,010
-303,051	164,179	-0,108	0,112
-302,037	208,305	-0,073	-0,083
-301,022	305,688	-0,038	-0,051
-300,008	800,000	-0,032	-0,067
-298,993	444,292	0,088	0,143
-297,978	311,358	-0,048	0,066
-296,964	800,000	0,040	0,089
-295,949	800,000	-0,016	0,034
-294,935	800,000	0,030	0,072
-293,920	142,776	0,066	-0,064
-292,905	-200,000	0,001	0,013
-291,891	2,720	0,025	-0,013
-290,876	-12,618	-0,073	0,035
-289,862	800,000	-0,055	-0,148
-288,847	-62,151	0,016	0,005
-287,832	98,248	-0,109	-0,092
-286,818	-200,000	-0,016	-0,097
-285,803	-200,000	-0,006	0,074
-284,789	152,214	-0,073	0,073
-283,774	-200,000	-0,020	0,173
-282,759	41,975	-0,108	-0,072
-281,745	-125,067	0,066	-0,007
-280,730	800,000	0,065	0,136
-279,716	-200,000	-0,011	0,175
-278,701	-200,000	-0,017	0,085
-277,686	346,120	-0,018	-0,025
-276,672	-41,182	0,144	-0,054
-275,657	-200,000	0,011	-0,148
-274,643	-200,000	0,008	-0,053
-273,628	10,479	-0,164	-0,091
-272,613	36,793	0,134	-0,086
-271,599	-1,841	-0,048	-0,025
-270,584	-37,780	-0,048	0,018
-269,570	58,314	0,066	-0,047
-268,555	-200,000	0,017	-0,115
-267,540	58,662	-0,170	-0,122
-266,526	800,000	0,008	-0,022
-265,511	292,651	-0,038	-0,050
-264,497	327,261	-0,055	0,078
-263,482	-200,000	0,019	-0,081
-262,467	52,773	0,041	0,029
-261,453	558,206	0,058	0,103
-260,438	-200,000	0,019	-0,074
-259,424	316,838	0,046	0,064
-258,409	-200,000	-0,019	-0,065
-257,395	295,155	-0,042	0,056
-256,380	800,000	-0,023	0,061
-255,365	-6,308	0,090	-0,045
-254,351	-31,367	0,075	-0,031
-253,336	683,593	-0,016	-0,031
-252,322	25,981	0,111	-0,067
-251,307	697,196	0,023	-0,045
-250,292	-76,355	0,123	-0,031
-249,278	800,000	0,041	0,101
-248,263	318,804	0,084	0,116
-247,249	-5,235	0,142	0,071
-246,234	-17,418	-0,064	-0,029
-245,219	800,000	0,068	-0,167
-244,205	140,648	-0,018	0,018
-243,190	-200,000	-0,022	0,112
-242,176	45,729	0,067	0,045
-241,161	140,794	0,067	-0,065
-240,146	-200,000	0,019	-0,128
-239,132	254,103	-0,102	-0,128
-238,117	800,000	-0,030	-0,064
-237,103	-23,500	-0,125	0,055
-236,088	-200,000	0,020	-0,075
-235,073	-79,114	-0,036	-0,009
-234,059	318,611	0,077	0,107
-233,044	800,000	0,024	0,070
-232,030	-34,321	-0,114	-0,045
-231,015	317,264	-0,029	0,040
-230,000	-148,601	-0,066	-0,004
-228,986	-189,027	-0,061	0,001
-227,971	254,386	0,033	0,041
-226,957	-200,000	-0,009	-0,100
-225,942	19,627	0,089	0,052
-224,927	52,869	-0,089	0,062
-223,913	245,090	-0,016	0,020
-222,898	-12,984	-0,097	-0,046
-221,884	102,820	-0,076	-0,065
-220,869	-69,734	0,117	-0,032
-219,855	231,984	0,128	-0,154
-218,840	-20,841	0,052	0,023
-217,825	179,924	0,092	-0,099
-216,811	84,284	0,071	-0,057
-215,796	179,348	0,011	-0,012
-214,782	119,525	0,042	-0,038
-213,767	-200,000	0,013	0,150
-212,752	220,204	-0,050	0,058
-211,738	-29,221	-0,186	0,077
-210,723	45,160	0,048	0,032
-209,709	-63,611	0,088	-0,026
-208,694	-10,741	-0,095	0,046
-207,679	-16,985	0,083	-0,038
-206,665	-121,136	-0,089	0,011
-205,650	800,000	0,031	0,094
-204,636	49,712	0,069	-0,048
-203,621	-49,951	-0,096	0,033
-202,606	-57,286	0,058	0,018
-201,592	110,258	-0,026	0,023
-200,577	188,908	-0,031	0,034
-199,563	85,243	0,107	-0,086
-198,548	-68,712	0,025	-0,007
-197,533	800,000	-0,012	0,029
-196,519	84,858	0,047	-0,038
-195,504	800,000	0,017	-0,039
-194,490	-78,589	0,111	-0,027
-193,475	180,028	0,078	-0,083
-192,460	79,252	-0,013	-0,010
-191,446	169,960	-0,088	0,092
-190,431	121,489	0,025	0,022
-189,417	-65,289	-0,112	-0,033
-188,402	-200,000	-0,004	-0,059
-187,387	800,000	-0,030	-0,086
-186,373	246,188	0,086	-0,106
-185,358	338,327	-0,057	-0,081
-184,344	800,000	0,034	0,080
-183,329	48,016	-0,104	0,071
-182,315	401,468	0,028	-0,043
-181,300	-200,000	0,006	-0,055
-180,285	-200,000	0,007	0,034
-179,271	-138,525	-0,034	-0,003
-178,256	180,820	-0,079	0,084
-177,242	-82,310	0,057	-0,013
-176,227	144,739	-0,055	0,053
-175,212	800,000	-0,040	0,125
-174,198	167,208	-0,096	-0,100
-173,183	324,032	-0,017	-0,023
-172,169	-56,536	-0,152	-0,049
-171,154	-200,000	-0,015	0,105
-170,139	268,020	0,042	-0,054
-169,125	242,556	0,082	0,100
-168,110	570,279	-0,046	-0,082
-167,096	-200,000	-0,000	-0,017
-166,081	-177,592	0,049	0,001
-165,066	69,561	-0,049	-0,036
-164,052	-138,502	-0,147	-0,012
-163,037	-159,574	-0,078	-0,003
-162,023	618,818	0,087	-0,160
-161,008	29,134	0,038	0,023
-159,993	-118,558	-0,105	0,013
-158,979	267,861	0,052	-0,067
-157,964	50,755	-0,063	-0,043
-156,950	-200,000	-0,048	-0,175
-155,935	98,662	-0,023	-0,020
-154,920	709,447	0,017	-0,033
-153,906	800,000	0,066	0,154
-152,891	167,615	0,043	-0,045
-151,877	-113,596	0,036	0,005
-150,862	800,000	-0,028	-0,069
-149,847	-200,000	-0,000	-0,002
-148,833	335,247	0,040	-0,056
-147,818	-200,000	-0,002	-0,035
-146,804	109,727	-0,054	0,047
-145,789	37,336	-0,038	-0,025
-144,775	693,832	-0,026	0,050
-143,760	800,000	-0,050	-0,159
-142,745	27,991	0,067	-0,041
-141,731	706,808	-0,031	-0,059
-140,716	54,509	-0,010	-0,007
-139,702	800,000	-0,025	0,053
-138,687	-65,685	-0,046	-0,013
-137,672	-52,448	-0,117	-0,039
-136,658	-8,606	-0,118	0,057
-135,643	200,110	-0,071	-0,079
-134,629	-200,000	0,003	0,024
-133,614	504,842	-0,042	0,070
-132,599	-200,000	-0,028	0,103
-131,585	314,869	-0,057	0,078
-130,570	-0,910	-0,107	-0,055
-129,556	-186,121	-0,019	0,000
-128,541	-23,122	-0,076	-0,033
-127,526	112,332	0,117	0,103
-126,512	-40,633	0,080	0,030
-125,497	-45,951	-0,059	0,021
-124,483	742,886	0,043	0,085
-123,468	-200,000	-0,010	0,060
-122,453	800,000	0,026	-0,070
-121,439	292,923	-0,079	-0,104
-120,424	782,302	-0,032	-0,064
-119,410	254,180	-0,040	0,049
