DTS Sentinel unit serial number:	SN410029Multiplexer serial number:	ORYXHardware model number:	OX2-SRSoftware version number:	ORYX F/W v4,00 Oryx Data Collector v3.7.2.0data status	okinstallation	B6 Nyhavnadifferential loss correction	single-endedforward channel	channel 2reverse channel	N/Adate	2023/12/08time	23:10:08forward acquisition time	300,00reverse acquisition time	0,00gamma	499,1914k internal	0,3157k external	0,3157temperature offset calibration	1,0000default loss term (dB/km)	0,3820temperature slope calibration	1,0000multiplexer offset coefficient	1,0000multiplexer slope coefficient	1,0000fibre end	0,00T internal ref (°C)	15,42T ext. ref 1 (°C)	-1,01T ext. ref 2 (°C)	-1,00length (m)	temperature (°C)	Stokes	anti-Stokes-744,400	0,316	0,051	0,027
-743,385	-74,073	-0,181	-0,048
-742,371	9,146	0,103	-0,057
-741,356	-11,034	-0,309	0,150
-740,342	109,394	0,137	-0,121
-739,327	-93,080	-0,180	0,037
-738,312	51,709	-0,045	-0,032
-737,298	-90,523	-0,373	-0,079
-736,283	123,161	0,128	0,118
-735,269	-75,589	-0,229	0,060
-734,254	-86,415	0,112	-0,025
-733,239	-60,148	-0,610	-0,190
-732,225	-125,056	0,298	0,033
-731,210	-16,070	-0,166	0,078
-730,196	-200,000	-0,027	-0,119
-729,181	-200,000	0,009	-0,092
-728,167	800,000	-0,021	0,056
-727,152	-200,000	-0,001	-0,099
-726,137	-77,991	-0,192	-0,048
-725,123	65,227	-0,092	-0,068
-724,108	-47,841	0,014	-0,005
-723,094	-39,393	-0,128	-0,049
-722,079	-200,000	-0,021	-0,098
-721,064	246,001	-0,063	-0,079
-720,050	800,000	-0,017	-0,050
-719,035	461,516	-0,057	-0,094
-718,021	543,676	0,029	-0,050
-717,006	800,000	-0,054	-0,129
-715,991	-48,323	-0,081	-0,029
-714,977	20,638	0,045	-0,027
-713,962	-173,189	-0,103	-0,002
-712,948	134,326	0,091	0,087
-711,933	454,450	-0,058	-0,095
-710,918	800,000	0,031	0,073
-709,904	-66,378	-0,009	-0,003
-708,889	59,164	-0,124	-0,090
-707,875	-96,535	-0,096	0,019
-706,860	645,027	-0,044	-0,083
-705,845	162,767	-0,065	0,067
-704,831	-135,023	-0,047	-0,004
-703,816	169,519	0,085	-0,090
-702,802	800,000	0,028	0,076
-701,787	-14,673	0,100	-0,047
-700,772	800,000	0,038	-0,080
-699,758	-200,000	-0,013	0,052
-698,743	-200,000	0,014	0,125
-697,729	134,036	0,097	0,092
-696,714	371,510	0,060	0,090
-695,699	-71,130	-0,129	-0,035
-694,685	-23,803	-0,095	0,042
-693,670	289,841	-0,101	0,136
-692,656	75,250	-0,088	0,068
-691,641	-200,000	0,013	-0,091
-690,627	410,597	0,062	0,097
-689,612	-7,247	-0,027	-0,014
-688,597	-200,000	-0,007	-0,027
-687,583	800,000	0,057	-0,132
-686,568	-60,407	-0,061	0,019
-685,554	4,579	-0,049	0,026
-684,539	-96,496	-0,068	-0,013
-683,524	318,357	0,058	-0,082
-682,510	211,401	0,062	0,072
-681,495	-200,000	-0,012	0,083
-680,481	-16,257	0,063	-0,029
-679,466	42,654	-0,042	-0,028
-678,451	-81,592	-0,074	-0,018
-677,437	113,043	-0,105	-0,094
-676,422	-162,386	-0,098	0,004
-675,408	356,890	-0,042	-0,062
-674,393	-200,000	0,005	-0,090
-673,378	20,508	-0,077	-0,046
-672,364	-1,858	-0,129	-0,067
-671,349	53,156	-0,034	-0,024
-670,335	736,450	-0,078	0,155
-669,320	25,930	-0,053	-0,032
-668,305	-61,019	0,128	-0,040
-667,291	-200,000	-0,021	-0,079
-666,276	800,000	-0,019	-0,043
-665,262	195,965	-0,028	0,032
-664,247	43,861	-0,081	-0,054
-663,232	-93,080	-0,042	0,009
-662,218	2,918	0,029	-0,016
-661,203	332,328	-0,023	0,032
-660,189	-200,000	0,026	-0,138
-659,174	-49,522	-0,028	-0,010
-658,159	800,000	-0,041	0,119
-657,145	-200,000	0,010	-0,125
-656,130	28,277	0,040	-0,025
-655,116	-40,756	0,127	0,048
-654,101	800,000	-0,008	-0,023
-653,086	349,225	-0,054	-0,079
-652,072	-200,000	0,010	-0,140
-651,057	627,666	-0,074	-0,139
-650,043	-200,000	-0,013	-0,143
-649,028	166,688	0,042	0,044
-648,014	-105,997	0,096	0,016
-646,999	-200,000	0,040	-0,149
-645,984	93,124	0,106	-0,088
-644,970	-200,000	-0,039	-0,174
-643,955	-200,000	-0,030	-0,104
-642,941	800,000	-0,007	-0,023
-641,926	-167,174	-0,064	-0,002
-640,911	-200,000	-0,013	-0,054
-639,897	-131,962	0,085	0,008
-638,882	50,456	0,088	0,061
-637,868	-80,474	-0,066	-0,016
-636,853	-200,000	0,000	0,025
-635,838	-186,716	0,006	0,000
-634,824	121,426	-0,055	-0,050
-633,809	-119,074	0,043	0,005
-632,795	-125,849	0,096	-0,010
-631,780	800,000	-0,032	0,100
-630,765	253,135	0,046	-0,058
-629,751	-59,157	-0,081	-0,025
-628,736	-200,000	0,003	0,079
-627,722	272,945	0,058	-0,076
-626,707	-200,000	-0,000	0,015
-625,692	-200,000	0,028	-0,126
-624,678	-200,000	-0,012	0,087
-623,663	73,114	-0,063	0,049
-622,649	197,620	-0,015	-0,017
-621,634	686,142	0,025	-0,049
-620,619	-13,888	-0,061	0,029
-619,605	33,615	-0,030	0,019
-618,590	-102,229	0,035	0,006
-617,576	-200,000	-0,006	0,048
-616,561	379,428	-0,012	0,018
-615,546	188,979	-0,080	-0,088
-614,532	688,772	-0,034	-0,066
-613,517	-200,000	-0,016	0,067
-612,503	-200,000	0,014	0,048
-611,488	-67,046	-0,116	-0,033
-610,474	440,856	0,040	0,064
-609,459	-10,152	-0,071	0,035
-608,444	106,792	0,100	-0,087
-607,430	-200,000	-0,013	-0,083
-606,415	-200,000	-0,017	0,063
-605,401	690,230	0,034	-0,065
-604,386	-51,438	-0,119	0,041
-603,371	-200,000	0,004	-0,054
-602,357	-23,713	0,106	-0,046
-601,342	64,314	-0,042	0,031
-600,328	125,353	-0,016	0,015
-599,313	6,173	0,112	-0,061
-598,298	800,000	0,004	-0,012
-597,284	460,596	-0,033	0,054
-596,269	-87,115	-0,055	0,012
-595,255	183,860	-0,069	0,075
-594,240	-200,000	-0,009	0,132
-593,225	-99,099	0,094	0,017
-592,211	-159,399	-0,132	-0,005
-591,196	280,295	0,075	0,098
-590,182	-51,247	-0,080	-0,027
-589,167	2,851	-0,042	0,022
-588,152	-200,000	-0,007	0,128
-587,138	-200,000	0,001	0,090
-586,123	-200,000	0,005	-0,068
-585,109	247,615	-0,061	-0,076
-584,094	-200,000	0,002	-0,049
-583,079	800,000	-0,009	-0,020
-582,065	-200,000	0,019	0,062
-581,050	80,309	0,009	0,007
-580,036	-200,000	-0,014	0,074
-579,021	-200,000	0,031	0,103
-578,006	696,529	-0,110	-0,212
-576,992	800,000	-0,067	-0,174
-575,977	320,540	0,071	-0,099
-574,963	496,215	-0,042	0,072
-573,948	-18,159	0,095	-0,044
-572,934	-200,000	-0,007	0,181
-571,919	155,430	0,066	-0,066
-570,904	800,000	-0,053	-0,122
-569,890	-57,996	0,101	-0,032
-568,875	298,152	-0,049	-0,066
-567,861	800,000	0,003	-0,007
-566,846	114,075	0,109	0,097
-565,831	133,705	0,041	-0,038
-564,817	-154,778	-0,108	0,005
-563,802	-98,157	-0,101	0,019
-562,788	-200,000	0,025	-0,090
-561,773	74,328	0,068	0,052
-560,758	-32,966	0,073	-0,030
-559,744	35,896	-0,066	-0,042
-558,729	637,574	0,054	-0,102
-557,715	337,429	0,054	-0,077
-556,700	-166,174	-0,069	-0,002
-555,685	-113,212	-0,127	-0,018
-554,671	-124,004	0,029	-0,003
-553,656	800,000	0,043	0,128
-552,642	-8,098	0,035	-0,017
-551,627	-101,262	0,065	-0,011
-550,612	-200,000	0,014	-0,134
-549,598	-88,933	0,084	-0,018
-548,583	800,000	-0,049	-0,142
-547,569	-200,000	0,004	0,027
-546,554	235,259	-0,054	0,065
-545,539	328,603	-0,016	-0,022
-544,525	45,593	0,049	0,033
-543,510	235,870	-0,077	-0,094
-542,496	59,724	-0,044	-0,032
-541,481	183,131	0,059	-0,064
-540,466	-31,927	0,056	-0,023
-539,452	-57,217	0,088	0,028
-538,437	-200,000	0,004	0,034
-537,423	-200,000	0,010	-0,043
-536,408	-162,536	0,050	-0,002
-535,393	-200,000	-0,006	0,028
-534,379	-82,015	-0,075	0,018
-533,364	-200,000	0,000	0,034
-532,350	-200,000	0,002	-0,150
-531,335	-49,221	-0,014	-0,005
-530,321	109,634	0,103	0,090
-529,306	-70,471	-0,082	0,022
-528,291	800,000	-0,054	-0,141
-527,277	800,000	0,050	-0,153
-526,262	94,047	-0,104	-0,086
-525,248	358,772	-0,124	-0,182
-524,233	170,253	0,019	0,020
-523,218	800,000	0,011	0,023
-522,204	-98,023	-0,152	-0,028
-521,189	405,991	-0,046	0,072
-520,175	-157,367	-0,026	0,001
-519,160	-25,742	-0,173	0,074
-518,145	60,219	0,022	-0,016
-517,131	-86,294	0,134	0,030
-516,116	136,058	0,041	0,039
-515,102	181,006	-0,067	0,072
-514,087	800,000	-0,036	0,108
-513,072	-145,263	0,068	-0,004
-512,058	-200,000	-0,019	-0,066
-511,043	-78,260	-0,151	0,038
-510,029	303,716	0,057	0,078
-509,014	1,583	0,101	0,053
-507,999	265,800	-0,017	-0,022
-506,985	162,255	-0,050	0,051
-505,970	-64,758	0,079	0,023
-504,956	-200,000	0,039	-0,138
-503,941	-146,251	0,122	-0,008
-502,926	-22,951	0,035	0,015
-501,912	22,216	0,201	0,120
-500,897	142,298	-0,062	0,060
-499,883	367,375	-0,026	-0,038
-498,868	-200,000	0,001	-0,013
-497,853	-34,627	0,092	-0,036
-496,839	-80,257	-0,041	-0,010
-495,824	-74,428	-0,120	-0,031
-494,810	800,000	-0,033	-0,083
-493,795	25,073	-0,129	0,078
-492,781	93,205	-0,059	-0,049
-491,766	401,749	-0,059	-0,091
-490,751	-200,000	0,007	0,073
-489,737	44,791	-0,084	-0,056
-488,722	-111,050	0,094	0,014
-487,708	-17,244	-0,070	0,032
-486,693	-200,000	0,000	0,126
-485,678	605,882	-0,076	-0,138
-484,664	-200,000	-0,012	-0,070
-483,649	800,000	-0,049	0,119
-482,635	-200,000	-0,034	0,118
-481,620	-197,558	0,163	0,001
-480,605	-156,828	0,076	0,003
-479,591	-200,000	-0,001	0,060
-478,576	-171,616	-0,018	-0,000
-477,562	216,558	-0,076	-0,089
-476,547	-200,000	0,004	-0,168
-475,532	321,890	-0,048	-0,066
-474,518	800,000	0,032	0,092
-473,503	124,593	0,063	0,058
-472,489	-88,983	-0,075	-0,016
-471,474	-200,000	0,013	-0,095
-470,459	-37,633	-0,093	-0,036
-469,445	70,153	0,089	0,067
-468,430	28,142	0,021	-0,013
-467,416	-200,000	-0,004	0,034
-466,401	176,451	-0,027	-0,029
-465,386	5,802	0,021	0,011
-464,372	-200,000	-0,014	-0,122
-463,357	-141,320	-0,109	-0,008
-462,343	91,600	-0,047	-0,038
-461,328	41,738	0,163	-0,108
-460,313	795,078	-0,055	-0,111
-459,299	-197,955	0,092	0,000
-458,284	-77,521	-0,155	-0,039
-457,270	-133,131	0,059	0,005
-456,255	-31,613	0,037	-0,015
-455,241	247,045	-0,078	-0,096
-454,226	-74,278	0,115	-0,030
-453,211	-200,000	0,011	0,081
-452,197	-136,203	-0,134	0,011
-451,182	-28,153	0,062	-0,026
-450,168	-200,000	0,005	-0,046
-449,153	1,799	-0,064	-0,034
-448,138	-200,000	-0,017	-0,108
-447,124	80,331	-0,119	-0,093
-446,109	-200,000	-0,010	0,036
-445,095	-134,301	-0,096	-0,008
-444,080	495,059	-0,040	0,067
-443,065	-200,000	0,011	-0,107
-442,051	113,711	0,034	0,030
-441,036	217,812	-0,114	-0,133
-440,022	117,452	-0,059	-0,053
-439,007	-123,250	0,179	0,021
-437,992	-200,000	0,015	0,089
-436,978	-123,849	0,072	0,008
-435,963	281,374	-0,058	0,076
-434,949	10,405	-0,106	0,059
-433,934	105,628	0,030	-0,026
-432,919	91,241	-0,065	-0,053
-431,905	-200,000	0,013	0,063
-430,890	-161,079	0,071	0,003
-429,876	518,398	-0,007	0,012
-428,861	800,000	0,009	0,025
-427,846	-200,000	0,000	0,048
-426,832	503,751	0,053	-0,090
-425,817	-131,384	-0,124	-0,012
-424,803	-200,000	0,007	0,166
-423,788	-81,986	0,135	-0,032
-422,773	358,694	-0,097	-0,142
-421,759	-97,634	0,019	0,004
-420,744	89,746	0,083	-0,067
-419,730	-200,000	0,000	0,092
-418,715	67,985	0,127	0,094
-417,701	87,501	-0,037	-0,030
-416,686	276,130	0,097	0,125
-415,671	483,027	-0,102	0,169
-414,657	357,874	-0,060	0,087
-413,642	800,000	0,031	0,067
-412,628	-54,396	-0,125	-0,041
-411,613	547,848	-0,014	-0,025
-410,598	12,558	-0,055	0,031
-409,584	-87,514	0,195	-0,043
-408,569	-157,827	-0,034	-0,001
-407,555	-200,000	-0,001	0,008
-406,540	45,912	0,089	-0,060
-405,525	-42,046	0,054	-0,020
-404,511	224,059	-0,095	0,112
-403,496	-42,000	0,153	0,057
-402,482	70,687	-0,083	0,062
-401,467	-153,610	0,140	-0,007
-400,452	-200,000	0,021	0,100
-399,438	-200,000	-0,033	0,121
-398,423	-148,245	-0,074	0,004
-397,409	-88,798	0,086	0,018
-396,394	-3,727	-0,070	0,035
-395,379	-200,000	0,013	-0,066
-394,365	603,597	0,034	0,062
-393,350	-82,568	-0,073	0,017
-392,336	9,277	0,065	0,035
-391,321	60,582	-0,067	-0,048
-390,306	-200,000	-0,020	-0,111
-389,292	121,840	-0,061	0,055
-388,277	278,812	-0,095	-0,124
-387,263	-124,089	0,078	0,009
-386,248	202,557	-0,007	0,008
-385,233	413,747	0,047	0,073
-384,219	-22,130	0,065	0,029
-383,204	-34,887	-0,151	-0,060
-382,190	260,921	-0,029	0,037
-381,175	256,666	-0,093	-0,116
-380,160	-200,000	0,011	0,041
-379,146	800,000	0,070	0,156
-378,131	-59,963	0,102	0,031
-377,117	-97,426	-0,093	0,017
-376,102	34,688	0,070	-0,045
-375,088	-200,000	0,010	-0,041
-374,073	289,223	-0,127	-0,168
-373,058	212,992	0,136	0,157
-372,044	569,409	0,069	0,123
-371,029	-98,833	-0,097	0,018
-370,015	784,640	-0,035	0,070
-369,000	-62,735	-0,054	0,016
-367,985	-94,057	-0,040	-0,008
-366,971	56,432	0,054	-0,038
-365,956	800,000	-0,026	0,063
-364,942	63,599	0,098	0,072
-363,927	104,535	0,110	0,094
-362,912	306,474	0,026	0,035
-361,898	-200,000	0,011	0,042
-360,883	30,846	-0,060	-0,037
-359,869	123,935	0,016	-0,015
-358,854	-200,000	-0,021	-0,113
-357,839	-123,840	-0,138	0,016
-356,825	-200,000	0,015	0,173
-355,810	800,000	0,030	-0,080
-354,796	113,793	-0,052	0,046
-353,781	800,000	-0,002	-0,005
-352,766	137,703	-0,121	-0,115
-351,752	278,725	-0,034	0,044
-350,737	-88,006	-0,124	0,027
-349,723	-200,000	0,014	0,073
-348,708	90,720	-0,085	-0,069
-347,693	268,805	0,054	-0,069
-346,679	-3,686	-0,071	0,036
-345,664	717,815	-0,012	-0,022
-344,650	85,475	0,056	-0,044
-343,635	182,231	-0,042	-0,045
-342,620	-48,997	0,118	0,041
-341,606	-126,781	0,082	0,009
-340,591	350,782	-0,015	0,021
-339,577	-200,000	-0,006	-0,031
-338,562	800,000	0,025	-0,079
-337,548	107,748	0,032	-0,027
-336,533	-200,000	0,016	0,079
-335,518	-1,265	-0,026	-0,013
-334,504	-153,090	-0,050	0,002
-333,489	-200,000	-0,002	-0,045
-332,475	16,999	-0,134	-0,077
-331,460	800,000	0,043	0,102
-330,445	185,795	0,022	-0,024
-329,431	113,133	-0,065	0,057
-328,416	-27,963	-0,030	0,013
-327,402	-32,765	0,059	0,024
-326,387	285,199	0,051	0,067
-325,372	-200,000	-0,021	0,119
-324,358	-200,000	-0,012	0,122
-323,343	-200,000	-0,001	0,052
-322,329	238,939	0,057	-0,069
-321,314	20,158	0,069	0,040
-320,299	-52,012	-0,117	-0,039
-319,285	-200,000	-0,002	-0,164
-318,270	-12,086	-0,065	-0,031
-317,256	800,000	-0,098	-0,199
-316,241	39,927	-0,079	0,052
-315,226	-200,000	0,007	0,076
-314,212	238,711	0,107	0,129
-313,197	155,531	-0,112	0,112
-312,183	80,870	-0,015	-0,012
-311,168	36,834	-0,047	0,030
-310,153	113,431	-0,045	-0,040
-309,139	-99,236	0,083	0,015
-308,124	46,300	0,086	-0,058
-307,110	-200,000	0,003	0,033
-306,095	59,253	-0,022	0,016
-305,080	103,414	-0,040	-0,034
-304,066	59,832	0,047	-0,034
-303,051	-35,428	0,053	0,021
-302,037	-79,370	0,100	0,024
-301,022	748,580	0,012	0,024
-300,008	9,836	0,045	0,025
-298,993	800,000	-0,010	0,029
-297,978	-200,000	0,019	-0,107
-296,964	-51,922	0,114	0,038
-295,949	-66,186	-0,019	0,005
-294,935	-136,636	0,163	-0,013
-293,920	156,382	0,076	-0,076
-292,905	-200,000	-0,015	0,091
-291,891	800,000	-0,024	-0,060
-290,876	50,398	0,066	-0,045
-289,862	-30,846	-0,072	0,029
-288,847	259,925	-0,049	-0,061
-287,832	548,882	-0,058	-0,101
-286,818	124,751	0,120	-0,110
-285,803	85,504	0,035	0,028
-284,789	-145,606	0,131	0,008
-283,774	-93,433	-0,099	0,020
-282,759	-200,000	-0,040	-0,159
-281,745	800,000	0,042	-0,132
-280,730	13,920	-0,042	-0,024
-279,716	663,528	0,042	0,079
-278,701	-200,000	0,010	-0,074
-277,686	290,206	-0,079	-0,104
-276,672	-18,628	0,072	0,032
-275,657	800,000	0,030	0,090
-274,643	800,000	-0,020	-0,046
-273,628	-200,000	-0,018	-0,078
-272,613	-166,983	0,147	-0,004
-271,599	61,989	-0,062	-0,045
-270,584	-112,711	0,039	0,006
-269,570	-22,585	0,170	0,074
-268,555	137,057	-0,131	-0,124
-267,540	313,222	-0,041	0,056
-266,526	-59,501	-0,084	-0,026
-265,511	800,000	0,033	0,093
-264,497	93,671	0,105	0,086
-263,482	591,348	0,072	0,129
-262,467	-200,000	0,000	0,047
-261,453	-43,351	0,051	-0,019
-260,438	-200,000	0,004	-0,028
-259,424	-200,000	-0,023	-0,109
-258,409	-125,637	-0,068	-0,007
-257,395	4,581	0,120	0,064
-256,380	-200,000	-0,018	0,177
-255,365	-51,582	-0,133	-0,044
-254,351	800,000	0,041	0,120
-253,336	304,881	0,059	0,080
-252,322	64,914	-0,090	0,066
-251,307	116,053	0,079	-0,070
-250,292	-79,639	-0,071	-0,017
-249,278	800,000	0,011	-0,026
-248,263	46,817	-0,043	-0,029
-247,249	-200,000	-0,019	0,148
-246,234	30,038	0,017	-0,010
-245,219	99,503	-0,039	-0,033
-244,205	12,516	0,078	0,043
-243,190	540,284	0,028	0,049
-242,176	800,000	0,053	0,121
-241,161	-200,000	0,005	0,034
-240,146	-101,721	-0,115	0,020
-239,132	87,154	-0,138	0,110
-238,117	-114,399	0,054	-0,007
-237,103	328,522	-0,053	-0,074
-236,088	-200,000	0,029	-0,107
-235,073	31,290	0,105	0,065
-234,059	800,000	0,038	0,085
-233,044	731,558	0,043	0,083
-232,030	268,467	-0,077	0,097
-231,015	116,203	-0,025	0,022
-230,000	694,898	-0,027	0,051
-228,986	-12,054	0,136	-0,064
-227,971	-146,358	0,096	-0,006
-226,957	98,488	0,084	-0,070
-225,942	572,259	0,074	0,131
-224,927	-178,291	-0,026	-0,000
-223,913	311,922	-0,039	-0,053
-222,898	395,360	-0,072	-0,108
-221,884	-200,000	-0,017	0,087
-220,869	-163,625	0,103	0,003
-219,855	56,614	-0,077	0,054
-218,840	13,562	0,082	-0,046
-217,825	24,223	0,002	0,001
-216,811	218,748	0,049	-0,056
-215,796	-11,436	-0,052	0,024
-214,782	28,872	0,009	0,006
-213,767	-200,000	0,014	0,070
-212,752	-154,761	0,053	0,002
-211,738	-28,433	0,081	-0,034
-210,723	187,561	0,084	0,091
-209,709	-29,732	-0,155	-0,064
-208,694	-200,000	-0,011	-0,082
-207,679	305,510	-0,082	0,110
-206,665	-200,000	-0,002	-0,043
-205,650	-68,631	-0,090	0,025
-204,636	227,112	0,032	-0,037
-203,621	-50,684	0,079	0,027
-202,606	800,000	0,048	-0,111
-201,592	-119,742	-0,030	-0,004
-200,577	800,000	-0,053	0,127
-199,563	-121,334	-0,058	0,007
-198,548	209,300	0,039	0,044
-197,533	-141,326	0,108	-0,008
-196,519	273,754	-0,088	-0,112
-195,504	-22,370	0,180	0,078
-194,490	-169,562	-0,050	-0,001
-193,475	344,411	-0,098	-0,139
-192,460	-200,000	-0,001	-0,032
-191,446	120,413	0,109	-0,098
-190,431	800,000	-0,014	0,041
-189,417	-52,393	0,100	0,033
-188,402	-78,614	-0,065	-0,016
-187,387	257,816	0,044	-0,054
-186,373	17,375	0,016	0,009
-185,358	673,042	0,027	-0,051
-184,344	506,205	0,037	-0,062
-183,329	-115,950	0,076	0,010
-182,315	513,956	-0,022	0,037
-181,300	-50,463	0,100	0,034
-180,285	-5,871	-0,077	-0,038
-179,271	800,000	0,070	-0,144
-178,256	-200,000	-0,005	-0,031
-177,242	-110,048	0,106	0,016
-176,227	-200,000	-0,002	0,040
-175,212	-200,000	-0,038	0,136
-174,198	-200,000	0,012	-0,055
-173,183	41,395	-0,165	-0,107
-172,169	-12,631	0,136	0,064
-171,154	-165,046	-0,112	0,004
-170,139	-43,765	-0,059	0,021
-169,125	-200,000	-0,022	0,094
-168,110	330,962	0,084	0,117
-167,096	-200,000	0,019	-0,075
-166,081	134,890	-0,089	0,083
-165,066	-167,399	-0,135	-0,004
-164,052	-200,000	0,009	-0,056
-163,037	-140,777	-0,076	-0,006
-162,023	-23,928	0,141	0,061
-161,008	422,777	0,023	0,036
-159,993	-200,000	-0,008	-0,041
-158,979	68,642	0,076	0,056
-157,964	-117,412	-0,147	0,019
-156,950	-25,432	-0,068	0,029
-155,935	-72,360	0,092	0,024
-154,920	269,892	0,059	0,075
-153,906	-200,000	0,001	0,088
-152,891	75,484	-0,043	0,032
-151,877	-200,000	-0,017	-0,079
-150,862	-200,000	0,004	-0,106
-149,847	-200,000	-0,031	-0,110
-148,833	-26,498	-0,089	-0,038
-147,818	104,188	0,097	-0,082
-146,804	800,000	-0,013	0,029
-145,789	349,593	0,006	-0,008
-144,775	324,619	-0,094	0,129
-143,760	211,165	-0,062	-0,071
-142,745	448,226	0,011	-0,018
-141,731	-42,125	0,187	0,068
-140,716	-159,871	0,091	0,004
-139,702	-200,000	-0,016	0,183
-138,687	-85,838	-0,074	0,016
-137,672	235,530	-0,082	-0,098
-136,658	136,161	-0,096	0,090
-135,643	800,000	0,040	-0,127
-134,629	-200,000	-0,014	-0,054
-133,614	-200,000	-0,032	0,152
-132,599	800,000	-0,019	0,040
-131,585	800,000	-0,023	0,047
-130,570	307,524	-0,036	-0,048
-129,556	-200,000	0,003	-0,020
-128,541	-200,000	-0,001	-0,086
-127,526	521,475	-0,015	-0,025
-126,512	-31,674	0,072	0,029
-125,497	-200,000	-0,021	-0,071
-124,483	96,603	-0,066	-0,055
-123,468	13,404	0,123	0,068
-122,453	121,101	-0,018	-0,016
-121,439	800,000	-0,020	-0,056
-120,424	-100,851	-0,085	0,015
-119,410	-68,694	-0,073	0,020
