DTS Sentinel unit serial number:	SN410029Multiplexer serial number:	ORYXHardware model number:	OX2-SRSoftware version number:	ORYX F/W v4,00 Oryx Data Collector v3.7.2.0data status	okinstallation	B6 Nyhavnadifferential loss correction	single-endedforward channel	channel 2reverse channel	N/Adate	2023/12/08time	01:25:08forward acquisition time	300,00reverse acquisition time	0,00gamma	499,1914k internal	0,3165k external	0,3165temperature offset calibration	1,0000default loss term (dB/km)	0,3820temperature slope calibration	1,0000multiplexer offset coefficient	1,0000multiplexer slope coefficient	1,0000fibre end	0,00T internal ref (°C)	13,25T ext. ref 1 (°C)	-3,62T ext. ref 2 (°C)	-3,62length (m)	temperature (°C)	Stokes	anti-Stokes-744,400	-40,134	0,154	0,059
-743,385	-110,661	-0,329	-0,049
-742,371	423,050	0,123	0,195
-741,356	-93,005	-0,261	0,053
-740,342	318,745	0,067	0,094
-739,327	-60,749	-0,230	0,071
-738,312	-81,571	0,201	0,048
-737,298	-134,668	-0,357	-0,032
-736,283	214,345	0,126	0,147
-735,269	-103,492	-0,247	0,042
-734,254	-200,000	0,013	0,114
-733,239	-71,824	-0,476	-0,129
-732,225	-140,484	0,120	0,009
-731,210	-200,000	0,008	0,044
-730,196	70,625	-0,047	0,036
-729,181	115,435	-0,104	-0,093
-728,167	-200,000	0,002	0,028
-727,152	135,309	-0,056	-0,054
-726,137	529,470	-0,130	-0,227
-725,123	-1,807	-0,139	-0,071
-724,108	800,000	-0,033	-0,092
-723,094	-200,000	-0,007	-0,146
-722,079	-200,000	0,009	-0,066
-721,064	-39,024	0,092	-0,035
-720,050	-68,516	-0,060	0,017
-719,035	80,164	-0,008	0,006
-718,021	197,567	-0,110	0,124
-717,006	236,560	-0,031	-0,038
-715,991	375,424	0,035	-0,052
-714,977	-200,000	-0,041	-0,151
-713,962	-65,616	0,040	0,012
-712,948	578,422	0,017	-0,030
-711,933	-124,344	-0,102	0,012
-710,918	667,003	0,032	0,061
-709,904	64,668	-0,123	-0,091
-708,889	89,555	-0,071	0,058
-707,875	-51,776	-0,136	0,046
-706,860	415,392	-0,057	-0,089
-705,845	353,485	-0,089	0,130
-704,831	-200,000	0,010	0,085
-703,816	-200,000	0,032	-0,201
-702,802	800,000	0,037	0,104
-701,787	152,163	-0,031	0,031
-700,772	-167,086	-0,088	-0,003
-699,758	27,422	0,031	-0,019
-698,743	-190,427	-0,127	0,001
-697,729	-18,036	-0,075	0,034
-696,714	-158,278	-0,070	0,003
-695,699	-39,118	-0,098	-0,038
-694,685	-200,000	0,014	-0,077
-693,670	-200,000	0,003	0,035
-692,656	-61,459	-0,066	-0,020
-691,641	205,665	-0,071	0,081
-690,627	2,052	-0,118	-0,062
-689,612	193,785	-0,042	-0,047
-688,597	329,451	-0,057	-0,081
-687,583	62,200	-0,117	-0,085
-686,568	-200,000	-0,014	-0,096
-685,554	58,142	-0,118	-0,085
-684,539	40,972	-0,029	0,019
-683,524	17,610	0,152	0,089
-682,510	-151,926	0,153	-0,008
-681,495	537,917	0,020	-0,035
-680,481	-70,193	-0,084	0,023
-679,466	-200,000	0,018	-0,095
-678,451	734,980	0,124	-0,245
-677,437	-55,282	-0,034	0,011
-676,422	800,000	-0,032	-0,074
-675,408	-172,167	-0,131	-0,003
-674,393	108,135	-0,100	0,087
-673,378	-200,000	0,002	0,116
-672,364	-200,000	-0,006	-0,172
-671,349	-200,000	0,011	-0,091
-670,335	-72,053	0,129	0,035
-669,320	139,946	0,009	0,009
-668,305	458,290	-0,018	-0,030
-667,291	214,060	0,030	-0,035
-666,276	7,836	-0,160	-0,088
-665,262	-200,000	-0,001	-0,073
-664,247	-119,359	-0,031	-0,004
-663,232	-200,000	0,018	-0,284
-662,218	-174,193	-0,036	-0,001
-661,203	100,816	-0,060	-0,051
-660,189	114,044	-0,073	0,065
-659,174	-96,312	-0,108	-0,021
-658,159	800,000	0,020	-0,045
-657,145	184,748	-0,099	-0,108
-656,130	115,200	-0,116	-0,104
-655,116	-155,774	0,129	-0,006
-654,101	-82,164	-0,067	-0,016
-653,086	800,000	-0,004	-0,008
-652,072	-200,000	0,010	-0,071
-651,057	55,920	-0,083	-0,059
-650,043	8,012	0,018	-0,010
-649,028	-71,540	0,057	-0,015
-648,014	203,464	-0,093	0,105
-646,999	6,841	0,065	-0,036
-645,984	31,807	-0,060	-0,038
-644,970	-200,000	0,014	-0,119
-643,955	-33,611	-0,066	0,027
-642,941	-200,000	-0,029	-0,129
-641,926	-200,000	0,006	-0,167
-640,911	-200,000	0,006	0,112
-639,897	63,993	0,076	0,056
-638,882	301,193	0,072	-0,098
-637,868	-200,000	0,024	0,083
-636,853	101,258	-0,111	-0,094
-635,838	-200,000	0,010	-0,231
-634,824	-83,661	0,052	-0,012
-633,809	33,057	0,055	-0,035
-632,795	165,819	-0,049	-0,051
-631,780	100,469	0,023	-0,020
-630,765	629,490	0,039	-0,072
-629,751	507,269	-0,040	-0,067
-628,736	386,002	0,032	-0,049
-627,722	800,000	0,007	0,020
-626,707	228,563	0,097	0,116
-625,692	112,136	0,115	0,102
-624,678	-200,000	-0,007	0,030
-623,663	45,175	-0,090	0,061
-622,649	148,455	-0,052	-0,051
-621,634	27,986	-0,097	-0,060
-620,619	105,360	0,042	0,036
-619,605	34,531	-0,030	-0,019
-618,590	378,332	-0,066	-0,100
-617,576	-200,000	-0,012	0,051
-616,561	-200,000	0,000	0,083
-615,546	800,000	-0,028	-0,083
-614,532	800,000	0,040	-0,122
-613,517	25,314	-0,132	0,080
-612,503	-200,000	0,034	0,120
-611,488	-129,055	-0,060	0,006
-610,474	800,000	-0,032	-0,073
-609,459	9,865	0,058	0,032
-608,444	-120,075	-0,067	0,008
-607,430	-160,555	0,143	-0,005
-606,415	528,811	-0,090	-0,156
-605,401	-130,099	0,017	0,002
-604,386	4,863	0,051	0,027
-603,371	-14,107	0,078	0,037
-602,357	800,000	-0,040	-0,114
-601,342	-159,607	-0,152	0,006
-600,328	-200,000	-0,049	0,161
-599,313	-163,811	-0,110	0,004
-598,298	16,185	-0,072	-0,041
-597,284	-113,125	-0,093	0,013
-596,269	30,314	-0,119	0,074
-595,255	300,900	0,044	0,060
-594,240	-82,614	-0,150	-0,035
-593,225	73,514	-0,089	-0,068
-592,211	-97,849	0,060	-0,011
-591,196	95,289	0,012	0,010
-590,182	-129,787	0,107	-0,011
-589,167	-200,000	-0,024	-0,088
-588,152	82,630	-0,050	0,040
-587,138	162,794	-0,053	0,054
-586,123	-95,207	-0,061	0,012
-585,109	391,591	-0,058	0,088
-584,094	-126,488	0,131	-0,014
-583,079	573,780	-0,050	-0,089
-582,065	177,830	-0,043	0,046
-581,050	-200,000	0,027	0,190
-580,036	800,000	-0,036	-0,078
-579,021	800,000	-0,048	0,117
-578,006	-200,000	-0,006	-0,061
-576,992	-122,242	-0,116	-0,014
-575,977	259,245	0,058	0,074
-574,963	-200,000	0,007	0,167
-573,948	-122,070	0,079	0,009
-572,934	426,503	-0,008	0,012
-571,919	30,503	-0,132	-0,082
-570,904	603,122	-0,065	-0,119
-569,890	-50,072	-0,082	0,028
-568,875	160,134	-0,068	-0,069
-567,861	228,222	-0,061	0,073
-566,846	282,698	0,033	-0,044
-565,831	-200,000	0,034	-0,155
-564,817	-13,102	-0,110	-0,052
-563,802	-200,000	0,021	-0,083
-562,788	800,000	-0,027	-0,058
-561,773	-200,000	-0,013	-0,106
-560,758	-34,524	0,154	-0,061
-559,744	-100,545	-0,042	0,008
-558,729	-124,116	-0,008	-0,001
-557,715	161,059	0,047	0,048
-556,700	309,518	0,110	-0,150
-555,685	74,580	-0,122	-0,093
-554,671	522,926	0,051	0,088
-553,656	-44,736	-0,018	-0,007
-552,642	-140,361	0,059	0,004
-551,627	-200,000	-0,007	0,035
-550,612	428,930	-0,015	0,024
-549,598	101,498	-0,067	0,057
-548,583	-123,304	0,046	0,005
-547,569	208,959	-0,059	-0,067
-546,554	-200,000	-0,019	0,129
-545,539	-200,000	-0,019	0,091
-544,525	140,987	-0,025	-0,024
-543,510	97,347	-0,073	-0,061
-542,496	-47,771	0,036	-0,013
-541,481	766,787	-0,042	0,084
-540,466	-35,667	0,076	0,030
-539,452	-200,000	-0,009	-0,088
-538,437	-107,044	-0,008	0,001
-537,423	-19,576	0,058	0,026
-536,408	-200,000	-0,004	0,118
-535,393	418,582	-0,048	-0,076
-534,379	183,497	-0,149	-0,161
-533,364	-132,060	0,024	0,002
-532,350	-199,772	0,178	-0,001
-531,335	453,361	0,044	0,072
-530,321	353,349	0,017	0,025
-529,306	49,765	-0,017	0,012
-528,291	-2,055	-0,151	-0,077
-527,277	-1,457	0,073	-0,037
-526,262	54,493	0,102	-0,071
-525,248	-3,173	0,066	-0,033
-524,233	276,765	-0,029	0,038
-523,218	800,000	0,059	0,182
-522,204	180,129	0,067	0,072
-521,189	-200,000	0,020	-0,147
-520,175	-200,000	-0,037	0,127
-519,160	211,838	-0,102	0,117
-518,145	-200,000	0,031	0,139
-517,131	-200,000	0,011	0,063
-516,116	362,635	0,091	-0,133
-515,102	114,999	-0,054	-0,048
-514,087	-200,000	0,008	-0,046
-513,072	374,652	-0,079	-0,117
-512,058	569,241	-0,020	0,035
-511,043	800,000	-0,021	-0,052
-510,029	-18,928	0,082	-0,037
-509,014	800,000	-0,050	0,147
-507,999	800,000	-0,026	-0,070
-506,985	212,036	-0,029	-0,034
-505,970	100,540	-0,093	-0,078
-504,956	178,160	-0,068	-0,073
-503,941	800,000	-0,050	0,116
-502,926	-109,585	0,127	0,019
-501,912	-111,040	0,104	0,015
-500,897	-200,000	-0,002	-0,187
-499,883	274,429	-0,087	-0,113
-498,868	77,621	-0,102	0,079
-497,853	480,298	0,035	-0,058
-496,839	76,811	-0,114	-0,088
-495,824	-200,000	0,031	-0,160
-494,810	360,642	0,078	0,115
-493,795	23,783	0,018	0,010
-492,781	91,979	-0,079	0,064
-491,766	283,635	0,094	-0,124
-490,751	553,438	0,063	-0,111
-489,737	34,537	-0,082	-0,052
-488,722	157,460	0,064	0,064
-487,708	800,000	-0,006	0,016
-486,693	74,642	-0,095	0,073
-485,678	123,524	0,046	0,042
-484,664	-195,861	-0,172	-0,001
-483,649	800,000	-0,009	-0,020
-482,635	326,152	0,013	-0,018
-481,620	-11,746	-0,085	0,041
-480,605	-200,000	0,026	-0,097
-479,591	800,000	0,048	0,118
-478,576	-200,000	-0,038	-0,125
-477,562	1,328	-0,137	0,071
-476,547	118,811	-0,089	-0,080
-475,532	800,000	0,070	-0,151
-474,518	800,000	-0,026	-0,067
-473,503	-200,000	0,018	0,072
-472,489	371,236	-0,036	0,053
-471,474	155,953	-0,084	-0,084
-470,459	157,730	0,028	-0,028
-469,445	800,000	0,021	-0,061
-468,430	488,958	0,050	-0,084
-467,416	53,618	-0,051	0,036
-466,401	-69,723	-0,126	-0,035
-465,386	800,000	0,038	0,108
-464,372	-200,000	-0,008	0,089
-463,357	-107,529	0,012	-0,002
-462,343	-37,261	0,098	0,038
-461,328	-81,003	-0,047	-0,011
-460,313	-200,000	0,034	0,144
-459,299	-200,000	0,005	0,153
-458,284	546,086	0,056	0,097
-457,270	-115,689	-0,037	0,005
-456,255	800,000	0,075	0,170
-455,241	-43,458	-0,156	-0,057
-454,226	-110,995	-0,023	0,003
-453,211	800,000	0,044	0,094
-452,197	800,000	0,075	0,213
-451,182	123,109	-0,052	0,047
-450,168	18,575	0,082	0,047
-449,153	-200,000	0,012	-0,123
-448,138	-200,000	-0,019	-0,191
-447,124	-64,204	-0,109	-0,032
-446,109	-179,710	0,057	-0,001
-445,095	107,551	-0,018	-0,016
-444,080	800,000	0,030	0,076
-443,065	291,559	-0,040	0,052
-442,051	-200,000	0,007	-0,131
-441,036	-141,669	-0,099	-0,007
-440,022	385,132	0,024	0,036
-439,007	-34,953	0,048	0,019
-437,992	-53,629	-0,015	0,005
-436,978	-200,000	0,008	0,053
-435,963	-58,267	0,060	-0,019
-434,949	98,277	-0,120	0,101
-433,934	800,000	0,035	-0,083
-432,919	196,650	-0,078	0,086
-431,905	-131,153	-0,055	0,005
-430,890	-99,348	0,139	-0,025
-429,876	800,000	0,041	0,092
-428,861	-200,000	0,017	0,115
-427,846	800,000	-0,027	-0,071
-426,832	-117,332	-0,078	-0,010
-425,817	-126,361	-0,118	-0,013
-424,803	-8,947	-0,082	-0,040
-423,788	605,233	0,073	-0,132
-422,773	-87,823	-0,044	-0,010
-421,759	497,661	0,050	-0,084
-420,744	-200,000	0,003	0,042
-419,730	137,519	0,033	0,031
-418,715	-31,045	-0,103	0,042
-417,701	-200,000	-0,020	-0,154
-416,686	800,000	0,046	-0,103
-415,671	-200,000	-0,026	0,088
-414,657	-66,441	0,037	-0,010
-413,642	800,000	0,020	0,052
-412,628	-200,000	-0,014	0,075
-411,613	-109,467	0,117	-0,018
-410,598	800,000	0,022	0,070
-409,584	800,000	-0,020	-0,051
-408,569	35,985	-0,018	0,011
-407,555	250,212	-0,061	0,075
-406,540	800,000	0,032	0,086
-405,525	-200,000	-0,005	-0,049
-404,511	-8,477	-0,072	0,035
-403,496	-30,339	-0,159	-0,065
-402,482	-45,080	0,029	0,011
-401,467	-200,000	0,027	0,088
-400,452	-37,924	-0,064	-0,025
-399,438	-200,000	-0,011	-0,044
-398,423	-105,491	-0,054	-0,009
-397,409	-200,000	-0,009	-0,183
-396,394	50,418	0,068	-0,046
-395,379	418,573	-0,006	-0,010
-394,365	800,000	-0,010	0,021
-393,350	197,790	0,016	-0,018
-392,336	-200,000	0,026	0,100
-391,321	800,000	0,022	0,065
-390,306	-55,241	-0,098	-0,032
-389,292	-124,594	0,083	0,009
-388,277	800,000	0,028	0,081
-387,263	330,876	-0,040	-0,056
-386,248	200,947	0,051	0,057
-385,233	503,610	0,063	0,107
-384,219	-200,000	-0,003	0,159
-383,204	-121,606	-0,067	-0,008
-382,190	112,457	-0,058	-0,051
-381,175	256,603	-0,066	0,082
-380,160	408,505	0,036	-0,055
-379,146	378,458	-0,086	0,128
-378,131	-200,000	-0,033	-0,128
-377,117	-200,000	-0,036	0,121
-376,102	-128,235	0,069	0,007
-375,088	47,943	0,069	-0,047
-374,073	-175,728	0,062	-0,001
-373,058	500,295	-0,038	0,065
-372,044	78,798	0,026	-0,020
-371,029	87,174	0,086	0,069
-370,015	-33,050	-0,090	-0,036
-369,000	340,078	0,079	0,113
-367,985	800,000	-0,005	0,015
-366,971	3,764	0,191	-0,101
-365,956	-73,450	-0,046	0,012
-364,942	800,000	-0,068	0,149
-363,927	-142,067	0,122	0,009
-362,912	534,292	0,078	-0,135
-361,898	-125,037	-0,126	-0,014
-360,883	215,341	0,016	-0,018
-359,869	-200,000	-0,001	-0,108
-358,854	-19,825	0,068	-0,030
-357,839	-109,993	-0,052	-0,008
-356,825	-30,055	0,075	0,031
-355,810	83,122	0,013	-0,010
-354,796	-177,088	-0,086	-0,002
-353,781	593,917	-0,087	0,156
-352,766	190,151	-0,029	0,031
-351,752	383,267	0,030	-0,044
-350,737	770,845	-0,039	-0,078
-349,723	-130,294	0,076	-0,007
-348,708	9,490	0,049	-0,027
-347,693	-144,441	0,092	0,006
-346,679	-200,000	0,001	-0,054
-345,664	54,274	-0,041	0,029
-344,650	-21,661	0,108	0,048
-343,635	0,626	0,121	-0,063
-342,620	-116,829	0,078	0,010
-341,606	60,859	0,160	0,115
-340,591	75,538	0,106	0,081
-339,577	-55,036	0,065	-0,021
-338,562	-200,000	0,015	-0,145
-337,548	800,000	-0,019	-0,051
-336,533	35,727	0,066	0,042
-335,518	-200,000	-0,033	0,146
-334,504	-200,000	-0,010	0,038
-333,489	369,048	-0,045	-0,066
-332,475	-200,000	0,011	-0,056
-331,460	-28,592	0,045	-0,019
-330,445	-120,575	0,034	-0,004
-329,431	67,615	0,002	-0,002
-328,416	176,887	0,095	-0,100
-327,402	-25,363	-0,114	0,048
-326,387	456,693	0,076	0,123
-325,372	-200,000	-0,028	-0,101
-324,358	-126,231	-0,123	0,013
-323,343	-95,104	-0,051	-0,010
-322,329	191,160	0,055	0,060
-321,314	618,958	-0,038	-0,070
-320,299	-151,951	0,050	-0,003
-319,285	112,783	0,076	-0,067
-318,270	304,359	-0,016	-0,021
-317,256	-200,000	-0,002	0,086
-316,241	193,060	-0,052	0,057
-315,226	-38,912	0,093	0,035
-314,212	-56,200	0,120	-0,038
-313,197	-62,510	0,057	0,017
-312,183	-200,000	0,004	0,080
-311,168	500,198	-0,017	-0,028
-310,153	-69,718	0,045	0,012
-309,139	800,000	-0,042	-0,102
-308,124	800,000	0,026	-0,053
-307,110	-55,112	0,047	0,015
-306,095	-200,000	0,004	0,017
-305,080	-0,900	0,095	0,048
-304,066	-171,999	-0,085	-0,002
-303,051	800,000	-0,087	-0,213
-302,037	82,438	0,079	-0,062
-301,022	-18,111	0,081	0,037
-300,008	-62,217	-0,020	-0,006
-298,993	-26,723	0,122	0,051
-297,978	-200,000	0,005	0,043
-296,964	19,739	-0,036	0,021
-295,949	-171,074	-0,027	0,001
-294,935	-93,729	0,024	0,005
-293,920	-200,000	0,000	0,047
-292,905	736,937	0,045	0,088
-291,891	169,045	0,119	0,123
-290,876	-200,000	0,003	-0,030
-289,862	155,947	-0,042	0,042
-288,847	-108,304	-0,045	-0,007
-287,832	800,000	-0,010	0,026
-286,818	53,072	-0,055	0,038
-285,803	-154,432	-0,050	0,002
-284,789	-200,000	0,035	0,151
-283,774	-200,000	0,012	-0,066
-282,759	176,163	0,054	0,056
-281,745	259,711	-0,041	0,051
-280,730	32,724	0,037	-0,023
-279,716	-51,725	0,056	0,019
-278,701	1,687	0,041	0,021
-277,686	800,000	0,012	-0,029
-276,672	800,000	-0,030	-0,075
-275,657	-135,942	-0,193	-0,016
-274,643	-63,610	0,071	-0,021
-273,628	58,055	-0,087	-0,061
-272,613	-10,329	0,099	0,047
-271,599	-157,410	0,162	0,007
-270,584	800,000	0,029	-0,069
-269,570	-131,213	0,170	0,016
-268,555	800,000	-0,026	0,059
-267,540	65,281	0,035	0,025
-266,526	223,360	-0,065	0,076
-265,511	-30,892	0,045	-0,018
-264,497	-80,266	0,069	0,017
-263,482	-101,908	0,121	0,021
-262,467	707,317	0,054	0,103
-261,453	528,848	-0,079	0,135
-260,438	412,974	0,070	-0,108
-259,424	316,135	-0,106	-0,145
-258,409	9,993	-0,183	-0,100
-257,395	230,992	0,025	-0,029
-256,380	104,623	0,096	0,081
-255,365	-64,443	0,010	-0,003
-254,351	-119,270	-0,105	-0,013
-253,336	-200,000	-0,005	-0,087
-252,322	115,049	-0,089	-0,078
-251,307	203,941	-0,025	-0,028
-250,292	-100,747	0,067	-0,012
-249,278	10,902	-0,052	0,029
-248,263	800,000	0,082	0,183
-247,249	123,135	-0,062	0,056
-246,234	297,848	0,055	-0,073
-245,219	130,399	-0,056	-0,052
-244,205	223,557	-0,027	-0,032
-243,190	35,958	0,064	-0,041
-242,176	-136,859	0,095	0,008
-241,161	79,258	0,074	0,057
-240,146	362,761	0,042	-0,061
-239,132	-56,553	-0,061	0,019
-238,117	-7,677	-0,177	-0,086
-237,103	-171,867	-0,061	-0,001
-236,088	-44,144	-0,137	0,049
-235,073	800,000	-0,047	0,124
-234,059	-44,474	0,113	0,041
-233,044	503,265	0,020	0,033
-232,030	-200,000	0,005	-0,118
-231,015	316,118	0,005	0,007
-230,000	396,828	-0,061	-0,092
-228,986	-200,000	0,009	0,043
-227,971	-200,000	-0,025	-0,125
-226,957	382,666	0,059	0,087
-225,942	253,387	0,108	-0,133
-224,927	501,774	0,074	-0,124
-223,913	59,524	0,005	-0,004
-222,898	-44,586	-0,087	-0,031
-221,884	-142,179	-0,155	-0,011
-220,869	116,825	0,048	0,042
-219,855	800,000	-0,026	0,079
-218,840	785,884	0,004	-0,009
-217,825	487,531	-0,037	-0,061
-216,811	332,372	0,095	0,133
-215,796	-64,634	0,107	-0,031
-214,782	70,347	0,072	0,054
-213,767	-137,719	-0,055	-0,004
-212,752	-200,000	-0,020	0,077
-211,738	800,000	0,076	0,197
-210,723	800,000	0,037	-0,094
-209,709	255,700	-0,051	-0,063
-208,694	-48,887	-0,024	0,008
-207,679	182,369	0,127	0,135
-206,665	110,331	-0,045	0,039
-205,650	510,398	0,020	0,034
-204,636	51,679	0,063	0,043
-203,621	-200,000	0,023	0,126
-202,606	310,392	0,060	0,081
-201,592	326,281	-0,010	0,014
-200,577	-200,000	-0,028	0,109
-199,563	120,955	0,108	-0,097
-198,548	229,746	0,059	0,070
-197,533	-200,000	-0,003	0,113
-196,519	-200,000	-0,006	-0,046
-195,504	-77,034	0,065	-0,016
-194,490	-38,021	-0,112	-0,043
-193,475	755,724	0,024	-0,046
-192,460	800,000	-0,040	-0,104
-191,446	-200,000	0,018	-0,073
-190,431	-46,088	-0,098	0,035
-189,417	-179,459	0,134	0,002
-188,402	-90,215	-0,043	-0,009
-187,387	-200,000	-0,008	-0,086
-186,373	94,098	0,013	-0,011
-185,358	-70,073	0,032	0,009
-184,344	-140,548	0,082	0,006
-183,329	-200,000	0,003	-0,042
-182,315	-200,000	-0,022	0,141
-181,300	-200,000	-0,003	0,027
-180,285	196,154	-0,123	0,135
-179,271	-161,560	0,155	-0,006
-178,256	-15,474	0,112	0,051
-177,242	318,550	0,077	-0,106
-176,227	502,514	0,050	-0,083
-175,212	-200,000	-0,012	-0,067
-174,198	-66,164	-0,034	-0,010
-173,183	81,329	-0,067	-0,052
-172,169	-174,285	-0,180	-0,004
-171,154	686,827	0,027	-0,052
-170,139	-5,598	-0,046	0,023
-169,125	-149,141	-0,099	0,006
-168,110	-200,000	-0,024	-0,130
-167,096	47,079	0,118	-0,078
-166,081	349,928	-0,018	0,026
-165,066	211,480	-0,104	-0,117
-164,052	-135,820	0,057	-0,005
-163,037	800,000	0,079	0,234
-162,023	800,000	0,034	0,080
-161,008	800,000	-0,017	0,036
-159,993	-95,904	-0,141	-0,027
-158,979	800,000	-0,060	-0,182
-157,964	125,504	0,091	-0,082
-156,950	-41,247	-0,069	0,025
-155,935	-30,306	-0,066	0,027
-154,920	266,216	0,122	0,154
-153,906	-78,065	0,074	0,018
-152,891	76,647	0,102	-0,078
-151,877	800,000	-0,070	-0,162
-150,862	-200,000	-0,012	-0,084
-149,847	-165,392	-0,105	0,003
-148,833	195,178	0,086	-0,094
-147,818	495,051	0,086	-0,143
-146,804	11,476	0,021	0,011
-145,789	800,000	-0,045	-0,131
-144,775	-30,493	-0,125	0,051
-143,760	-136,192	-0,113	0,009
-142,745	48,863	-0,034	-0,023
-141,731	-101,497	0,049	-0,008
-140,716	-92,840	0,016	0,003
-139,702	800,000	0,021	-0,059
-138,687	87,516	-0,113	0,090
-137,672	-82,736	0,029	-0,007
-136,658	-4,203	-0,045	0,022
-135,643	-93,845	0,115	-0,023
-134,629	35,524	0,063	-0,040
-133,614	800,000	0,071	0,155
-132,599	455,119	0,056	-0,090
-131,585	47,728	-0,125	-0,084
-130,570	102,453	-0,076	0,064
-129,556	-200,000	0,032	-0,134
-128,541	59,276	-0,066	0,047
-127,526	-200,000	-0,034	-0,148
-126,512	-200,000	-0,001	-0,087
-125,497	-17,848	0,096	0,043
-124,483	58,517	-0,018	0,013
-123,468	800,000	0,051	-0,127
-122,453	182,423	0,052	0,056
-121,439	91,475	0,084	-0,068
-120,424	168,910	0,087	-0,089
-119,410	800,000	0,059	0,136
